SPECTRUM - MS,
303.RAW,
FTMS + p ESI Full ms [50.00-1000.00],
Scan #: 1-40,
RT: 0.01-1.97,
AV: 40,
m/z,Intensity

50.0044,205
50.0104,318.2
50.0298,78.3
50.0444,350.8
50.0491,443.6
50.0577,215.1
50.0588,101.4
50.0603,339.5
50.0647,315.9
50.0718,171.7
50.0762,22.1
50.0855,138.7
50.0867,771.2
50.0895,261.3
50.0994,320.4
50.1039,18.9
50.1075,180.6
50.117,162.3
50.1204,497.1
50.1268,550.5
50.1379,19.8
50.1409,84.2
50.1715,304.3
50.1876,92.8
50.1922,648.2
50.2092,260.8
50.218,358.3
50.22,317.2
50.229,19.6
50.235,17.6
50.2461,275.3
50.2474,73.4
50.2654,730.7
50.2714,213.8
50.2975,18.9
50.3126,93.8
50.3181,464.5
50.3229,302.4
50.3779,204.4
50.3906,97.3
50.407,181.2
50.41,158.2
50.4183,157
50.433,16.8
50.438,214.9
50.4418,101.1
50.442,106
50.4535,71.2
50.4908,74.5
50.4993,483.6
50.5089,120.4
50.526,111.6
50.5308,320.1
50.5625,78.9
50.5687,283.2
50.5698,16.5
50.5896,343.9
50.6229,591.3
50.6247,236
50.6289,396.4
50.6298,140.9
50.6334,195.2
50.6442,147.9
50.6591,148
50.6843,197.9
50.6872,311
50.6953,197.1
50.7019,19.9
50.7223,111.8
50.7285,119.6
50.7544,263.8
50.8076,117.9
50.8105,471.8
50.8125,714.5
50.8574,700
50.8585,415.4
50.8896,261.6
50.8995,589.5
50.9011,563.4
50.9106,293
50.9148,788.4
50.9189,387.4
50.92,312.3
50.9437,641.2
50.9449,317.6
50.9507,371.6
50.9549,199
50.9565,765.6
50.9623,140.6
50.971,776.6
50.9725,708.2
50.9745,267.1
50.9891,554.2
51.0085,258.8
51.0178,76.1
51.0185,18.4
51.0223,83.9
51.0261,77.6
51.0523,505.8
51.0541,132.5
51.0763,677
51.0959,170
51.1041,241
51.1112,185.4
51.1609,15.7
51.1763,120.4
51.1802,261.3
51.1842,99.6
51.1996,141.6
51.2146,172.7
51.2177,81.6
51.2208,97.6
51.2439,146.8
51.2578,335.8
51.281,21
51.2945,589.3
51.323,17.1
51.3347,158.5
51.3641,501.8
51.3678,785.6
51.3705,165.5
51.3751,387.6
51.3754,347.6
51.383,603.4
51.3968,86.9
51.4211,567.7
51.4292,155.1
51.4661,659.3
51.4688,16.4
51.476,726.9
51.4782,511.5
51.4949,71.5
51.5102,84.5
51.5677,305.9
51.5801,316.9
51.5818,395.2
51.6069,576.7
51.6096,15.9
51.6258,80.9
51.6321,191.9
51.6363,108.7
51.6478,316
51.6672,131
51.6725,83.4
51.6735,195
51.6738,179.2
51.6889,108.6
51.6894,280.4
51.6932,182
51.6978,89.9
51.7105,18.8
51.7129,870.5
51.7156,87
51.7358,81
51.7621,653.7
51.7627,143.1
51.777,195.5
51.7842,99.7
51.8115,139.7
51.821,363
51.8214,71
51.83,305.5
51.832,15.4
51.8552,334.4
51.8655,161.4
51.8752,378.8
51.8919,82
51.9019,199.1
51.9153,636.4
51.9295,313.4
51.94,453.9
51.9553,317.3
51.9689,287.3
51.9731,358.5
51.9751,102.1
51.978,17
51.9896,16.1
51.999,301.5
51.9998,18.7
52.0172,660.7
52.0211,102
52.0238,612.4
52.0393,170.3
52.0506,517.9
52.0696,136.7
52.0767,80
52.0838,520.8
52.0975,339.6
52.1355,344
52.1439,147.8
52.1533,633.1
52.1546,687.8
52.1948,131.4
52.2039,624.1
52.2208,103.5
52.2244,103.2
52.228,195.7
52.2317,230.9
52.2321,371.1
52.2434,81.8
52.2571,105.3
52.263,261.1
52.2636,18.9
52.2794,56.8
52.2943,136
52.3256,137.8
52.3354,625.4
52.3572,813.9
52.3758,686.3
52.3759,732.6
52.3761,441.5
52.3803,299.1
52.387,492.7
52.3991,190.5
52.4073,21.5
52.4141,285.4
52.4175,81.7
52.4196,355.1
52.4209,490.6
52.4365,607.6
52.4574,413.2
52.4603,83.4
52.4688,632.9
52.4782,304.1
52.4864,831.6
52.4928,136.3
52.509,467.8
52.538,626.2
52.5542,174.4
52.5558,73.9
52.5607,391.4
52.5618,578.3
52.5687,99.4
52.5707,113.6
52.5725,82.4
52.5755,80.8
52.6061,97.2
52.6291,412.1
52.6547,448.4
52.6622,51.4
52.6932,610.2
52.7063,354.2
52.7121,375
52.7217,482.3
52.7258,467.4
52.7358,334.4
52.7407,829.2
52.751,782.2
52.7591,294.9
52.7669,79.3
52.768,121.9
52.7697,80.9
52.788,91.1
52.7886,16.1
52.7929,20.7
52.8005,17.4
52.8248,247.6
52.8261,704.1
52.8266,807.8
52.827,860.5
52.8277,3137.2
52.8283,382.8
52.8289,1977.4
52.8296,56.2
52.83,863
52.8306,1691.2
52.831,1266.9
52.8315,898.1
52.8319,391.1
52.8329,690
52.835,436.5
52.8454,115.8
52.8527,163.2
52.8535,612
52.862,758.6
52.8624,76.8
52.8723,119.8
52.8849,634.3
52.9047,88.3
52.9059,301.7
52.9188,261.7
52.9284,59.2
52.9379,188.4
52.9453,88.8
52.9542,230.5
52.9607,286.9
52.9682,391
52.9699,170.5
52.9783,146
52.9788,168
52.9819,976.4
52.994,848.7
52.9954,113.6
52.9999,118.4
53.0039,637.5
53.015,15.3
53.0251,121.8
53.0387,98.2
53.0402,474.4
53.0667,253
53.0713,76.9
53.0755,150.3
53.0811,88.6
53.088,376.8
53.0952,584.2
53.1057,339.6
53.1107,150.7
53.1404,17.5
53.1408,19
53.1499,89.4
53.1543,307.4
53.1747,362.6
53.1891,190.4
53.1931,284.6
53.1936,343.7
53.1987,574.7
53.2057,96
53.2225,168.6
53.2303,165.1
53.2443,745.4
53.2497,16.2
53.2552,538.7
53.2649,352.3
53.2669,55
53.2716,61.8
53.28,487.4
53.3,145.4
53.3028,17.7
53.3089,505.8
53.31,741.6
53.3201,702.8
53.3245,122.4
53.3369,497.8
53.3391,171
53.3507,151.6
53.3538,319.7
53.3609,437.1
53.3755,131.4
53.3781,138.2
53.391,165
53.399,299.5
53.4013,16.5
53.4147,192.8
53.4185,145
53.4245,16.7
53.432,68.8
53.4348,391.3
53.4444,20.4
53.454,135.6
53.4608,101.1
53.4717,687
53.4967,16.5
53.4982,490.8
53.5054,166.5
53.5071,85.6
53.536,156.2
53.5575,97.8
53.5668,96.8
53.6005,286.8
53.6044,127
53.6059,135.2
53.6265,313.6
53.6351,96.7
53.6361,17.1
53.6542,83.6
53.6553,465.2
53.6578,234.6
53.6915,262.9
53.7041,315.5
53.7074,492.3
53.7138,52.2
53.7143,834.5
53.7204,77.5
53.7222,299.7
53.7224,439.4
53.7225,414
53.7417,96.5
53.7453,420.9
53.7482,620.9
53.7557,99.7
53.7672,127.7
53.7735,113
53.777,299
53.7798,105.2
53.7866,69.5
53.7898,192.5
53.8129,18.4
53.8133,18.2
53.8172,486.2
53.8315,200.2
53.8422,558.7
53.8441,103.3
53.8575,49.7
53.8627,275.2
53.8703,808.1
53.8791,15.4
53.8864,256.4
53.888,92.7
53.8897,161.7
53.9008,344.7
53.9097,94.7
53.9153,196.2
53.9199,77.9
53.9363,189.5
53.9446,144.7
53.9473,144
53.949,100.5
53.9522,810.7
53.9541,175.3
53.9549,945.8
53.9698,82.1
54.0113,186.2
54.0188,207.7
54.0243,85.5
54.0491,80.5
54.0611,88.5
54.0657,141.5
54.0674,53.9
54.0702,529.7
54.0849,76.2
54.0893,773
54.0916,391.4
54.1019,669.1
54.1213,131.5
54.1239,312.7
54.1259,18.3
54.1361,574.5
54.1695,184.2
54.1755,277.5
54.177,145.5
54.1865,163.7
54.1889,579.2
54.2073,315.9
54.2168,797.6
54.2204,91.1
54.2268,148
54.2471,157.9
54.2511,84.3
54.2542,148.4
54.2897,16
54.3013,109
54.3065,138.9
54.3087,205.4
54.3331,167.7
54.3415,83.6
54.3489,90
54.357,281.5
54.3614,513.1
54.3666,284.6
54.3729,322
54.4255,357.2
54.4345,984.5
54.4368,466
54.4432,362.5
54.4468,83.9
54.467,359.9
54.4843,841.5
54.4883,853.7
54.4976,182.9
54.5007,397.7
54.5134,800.8
54.5214,281.7
54.5317,398.6
54.5327,503.4
54.537,323.7
54.5552,81.4
54.5661,85.5
54.5676,81.2
54.6167,120
54.6212,86.5
54.6282,169.3
54.6303,479.3
54.6373,72.7
54.6713,74.7
54.6779,108.8
54.6964,17.2
54.7004,78.8
54.7263,288.5
54.742,267.6
54.764,92.8
54.765,17.3
54.7664,574.2
54.7699,75.6
54.7919,15.8
54.7931,240.3
54.8009,272.3
54.8088,93.9
54.8108,158.8
54.8127,198.9
54.8136,519.1
54.8296,205.4
54.8344,176.6
54.8433,16.5
54.8544,831.4
54.8557,139.9
54.8764,82
54.8907,90.7
54.8972,682.5
54.9079,93
54.9121,154.6
54.9139,183.9
54.9192,200.5
54.9433,445.4
54.9448,58.9
54.95,509.1
54.9933,77.6
55.0003,309.2
55.0213,15.4
55.0227,103.8
55.0431,451.2
55.0623,52.7
55.0961,109.2
55.106,273.4
55.127,595.1
55.1356,815
55.1584,182.8
55.1636,305.4
55.1725,683.1
55.1936,80.4
55.2026,780.8
55.2079,19.6
55.2144,362.5
55.2158,94.9
55.2287,368.6
55.2361,18.2
55.2467,387.8
55.2808,169.2
55.2919,139.3
55.2962,846
55.3106,466
55.3111,682.7
55.3207,19.4
55.3331,253.7
55.3446,372.8
55.3529,493.4
55.3553,116.3
55.3921,285.5
55.3947,258.3
55.3983,782.5
55.4347,209.6
55.4454,332.3
55.4519,176.7
55.4557,172.7
55.4569,182.3
55.4602,15.4
55.4626,100.5
55.488,135.6
55.5059,757.9
55.5262,234.4
55.5296,88.9
55.5468,56.6
55.5628,471.7
55.5664,150.7
55.5686,155.6
55.5937,889.5
55.6112,794.6
55.6198,16.2
55.6387,142.7
55.6589,165.3
55.6857,15
55.7215,516.7
55.7264,170.6
55.758,699.6
55.7652,126.3
55.7904,17.1
55.8288,142.1
55.8551,286.7
55.8717,203.2
55.9004,15.9
55.9025,174.9
55.9052,162.8
55.9076,81.6
55.9092,17.2
55.9108,284.2
55.9181,153.6
55.9409,50.8
55.9459,17.9
55.9606,163.5
55.9673,108.3
55.9782,736.9
55.9972,90.3
56.0031,309.9
56.0331,89.6
56.0376,152.2
56.0575,809.3
56.0745,198.3
56.0797,360.4
56.0874,292.4
56.1103,408.5
56.1392,107.9
56.1621,15.5
56.1723,187.9
56.1781,82.9
56.1834,174
56.1943,251.7
56.2434,300.1
56.2441,149
56.2484,809.7
56.2544,84.9
56.2841,916.1
56.3061,345.9
56.3245,18.8
56.3288,333.1
56.3318,173.9
56.3397,381.6
56.3455,586.5
56.3518,579.5
56.3601,449.1
56.3744,340.6
56.3771,174.4
56.3965,377.6
56.4104,264.2
56.4269,337.5
56.4274,98.8
56.4285,311
56.4489,578.3
56.4536,553.1
56.4686,87.9
56.4709,85.3
56.4948,321
56.5105,16.3
56.5365,344.9
56.54,569.4
56.5492,17.2
56.5687,16.2
56.5721,83.5
56.5724,116.1
56.5811,76.2
56.585,375.4
56.5911,194.7
56.6199,719
56.6221,71.7
56.6263,354.4
56.6321,560.6
56.6584,55.2
56.6866,511.2
56.69,186.9
56.715,507.9
56.7178,18.2
56.7221,480.4
56.7232,86.5
56.7296,199.4
56.7324,371.2
56.7655,588.7
56.7822,349.2
56.801,23.3
56.8082,61.7
56.814,831.9
56.8216,377.3
56.8234,341.5
56.8256,139.8
56.8329,491.8
56.8358,285.2
56.8445,218.5
56.8631,187.5
56.8821,389.6
56.8868,89.9
56.9112,15.5
56.9204,80.5
56.9678,208.2
56.9942,524
57.0054,188
57.0172,16.3
57.0222,177.7
57.0256,140.7
57.0276,193.7
57.0318,157.8
57.0348,745.1
57.0374,300.5
57.0724,282.7
57.0907,78.4
57.0954,455.5
57.1018,453.6
57.1039,136.2
57.1137,530.9
57.1204,82
57.1371,21.2
57.142,144.1
57.1472,153
57.1489,150.6
57.1701,438
57.1851,397.4
57.2013,336.6
57.2474,262.1
57.2635,221.2
57.277,216.2
57.2887,487.7
57.2895,293.8
57.3102,81.7
57.3361,71.9
57.3379,169.9
57.3572,369.5
57.3634,191.7
57.3647,150.3
57.3709,696.3
57.4163,72.4
57.4277,78
57.4403,558.2
57.4445,176.3
57.4504,552.9
57.4593,74.2
57.4728,93.9
57.4754,525.9
57.496,112.8
57.5172,72.3
57.5523,335.7
57.5566,246.8
57.5633,54
57.5664,153.9
57.5716,53.2
57.6032,78.5
57.6144,381.2
57.6253,140.4
57.6338,123.2
57.6346,650.9
57.6363,288
57.6437,260.5
57.6488,313.2
57.653,306.4
57.6569,208.2
57.6702,826.2
57.6824,609.3
57.6961,550.8
57.7207,542.4
57.7335,171.7
57.7725,607.9
57.7809,334.7
57.7842,126.3
57.7926,681.1
57.8065,166.3
57.8104,381.3
57.8326,233.6
57.8562,203.4
57.8854,321.6
57.8956,112.8
57.9276,307.2
57.9345,351.4
57.9407,17.4
57.9613,15.8
57.972,90.4
57.9737,168.9
57.9854,15.2
57.9857,16.4
57.9887,201
58.0061,297.7
58.0077,660.1
58.0165,588.5
58.0594,213.6
58.0632,98.5
58.0671,201.2
58.0916,136.7
58.1,370.6
58.1242,920.1
58.1283,14.9
58.1363,62.9
58.1463,18.1
58.1606,304.9
58.1876,450.4
58.192,665.1
58.2004,143.4
58.2121,74.3
58.2127,105.1
58.2186,218.2
58.2222,99.1
58.2336,972.9
58.2351,609.8
58.2373,345.5
58.2493,79.8
58.2584,206.7
58.2717,298.2
58.2761,149.1
58.2843,99.8
58.2948,414.5
58.3002,16.1
58.3203,95.5
58.3285,16.6
58.3371,322.1
58.3415,152.6
58.3833,479.1
58.3839,95.4
58.4015,144.2
58.4129,496.9
58.4169,197.5
58.4303,169.4
58.4381,373
58.4466,130.3
58.4495,150.1
58.4548,564.7
58.4582,885.8
58.4612,757.3
58.4617,134
58.4987,214.6
58.5048,200.5
58.506,183
58.5151,846.4
58.5185,263.7
58.5209,1279.2
58.5429,81.1
58.5439,362.2
58.5566,19.2
58.5611,231.8
58.5639,339.2
58.5792,161.6
58.5868,75.4
58.6104,193.5
58.6274,821.6
58.6373,784.2
58.6387,163.9
58.6406,236
58.644,285.7
58.66,15.5
58.6754,98.9
58.6818,465.4
58.6916,389.3
58.692,16
58.7005,22
58.7136,218.8
58.717,994.4
58.7237,133.2
58.7271,105.3
58.7316,192.2
58.7335,524.8
58.7355,189.7
58.7621,145.2
58.7946,59.2
58.8011,841.3
58.8068,140.2
58.8127,147.3
58.8309,19.7
58.8355,469.5
58.8392,490.7
58.8545,128.4
58.8592,753.3
58.8984,53.2
58.9003,241
58.9079,80
58.9088,59.9
58.9271,18.1
58.9479,137.9
58.9632,108.7
58.9729,338
58.9804,901
58.9848,77.4
58.9923,148.8
59.0214,585.5
59.0223,336.2
59.0315,140.8
59.0335,310.5
59.0382,604
59.0561,16.4
59.0641,358
59.068,348.4
59.093,18.3
59.1189,289.9
59.1212,392.5
59.1284,117.4
59.13,305.3
59.1491,634.5
59.151,22.9
59.1736,527
59.1767,157.4
59.2054,168.3
59.2113,418.5
59.2251,441.7
59.2294,107.8
59.2374,371.6
59.26,459
59.2635,19.7
59.264,90.9
59.2647,509.5
59.2743,108.3
59.2756,303
59.2848,17.1
59.3015,636.5
59.3033,362.5
59.3135,80.6
59.3219,649.9
59.3419,570.8
59.3444,16.7
59.3457,73.9
59.3632,100.6
59.383,72.2
59.4002,14.8
59.4201,350.6
59.4233,91.4
59.4401,21.9
59.4747,428.8
59.4806,165.1
59.5101,395.9
59.5107,84.8
59.5115,262.2
59.5284,150
59.5306,126.7
59.5314,211
59.532,87.1
59.5512,241.1
59.5536,315.1
59.5695,913.7
59.5864,167.1
59.5876,505
59.6216,462.3
59.6326,886.8
59.6368,181.1
59.6378,260.9
59.6453,16.4
59.6665,736.4
59.6879,79.1
59.6887,333.5
59.6889,310.6
59.6951,461.4
59.7075,16.8
59.7319,560.2
59.7652,613.7
59.7708,107.7
59.7895,317
59.7921,80.1
59.8037,175.2
59.8244,973.5
59.825,319.2
59.8371,83.9
59.8475,397.5
59.8647,333.8
59.8664,841.8
59.9081,459.9
59.9141,311.1
59.9296,85.8
59.9375,154.4
59.9449,155
59.9833,330.7
59.9969,135.1
60.0168,324.5
60.0208,337.6
60.0228,156.9
60.0541,262.2
60.0653,179.1
60.0698,680.5
60.0866,148.3
60.0891,758.4
60.1097,84.6
60.1127,128.1
60.1376,91.8
60.1442,602.3
60.1558,528.1
60.1792,16.6
60.1819,119.9
60.2359,150.5
60.2751,148.8
60.2812,299.6
60.2855,802.3
60.3005,179.6
60.3306,184
60.333,457.7
60.3364,78.9
60.3483,608.9
60.3624,506.5
60.3752,147.3
60.3869,367.9
60.3895,15.9
60.3947,816.9
60.4016,208.8
60.405,134.9
60.4214,490.3
60.427,310.5
60.4425,171
60.4696,18.9
60.498,476.4
60.5043,89.1
60.5072,144.4
60.5179,72.6
60.5228,131.5
60.5279,297.6
60.5333,536.1
60.5551,803.7
60.5742,924.2
60.5756,16.2
60.5834,91.1
60.5956,206.3
60.6003,401.7
60.6091,14.8
60.6284,85.3
60.6357,431.8
60.6395,77.5
60.6724,202.3
60.6765,116.9
60.6818,94.9
60.6973,88.9
60.7252,155.7
60.7303,403.4
60.7361,540.8
60.7742,720.6
60.7817,170.2
60.7821,110.7
60.7882,147.2
60.8003,337.6
60.8024,303
60.8074,490.8
60.817,195.5
60.8318,188.1
60.8395,298.1
60.8424,533
60.8662,95.7
60.8691,16.4
60.8838,140.1
60.9362,286.2
60.9535,77.5
60.976,85
60.9919,389.5
61.0076,18
61.0129,135.2
61.0226,96.4
61.0292,329.8
61.0501,15.8
61.0697,202.8
61.0756,125.4
61.0779,337.4
61.0786,140.6
61.0905,98.5
61.0999,496
61.1057,354.8
61.1235,157.8
61.1437,95.8
61.1568,98.4
61.1651,142.4
61.1835,141.5
61.2001,16.1
61.206,15.9
61.2087,293.2
61.2091,469.8
61.2283,280.2
61.2647,170.7
61.267,100.4
61.2829,339.8
61.3208,102
61.3527,80.6
61.3566,513.3
61.3658,129.6
61.3677,94.2
61.3756,206.6
61.3888,86.1
61.3907,83
61.3922,18
61.3994,575.4
61.4471,16.8
61.4493,611.6
61.4998,455.5
61.5021,493.1
61.5141,316.2
61.5218,55.5
61.5244,213.3
61.5691,1078.2
61.5808,95.8
61.587,89.2
61.5885,138.1
61.59,594.7
61.6002,301.9
61.6055,268.6
61.6136,324.6
61.6165,79.2
61.6502,966.6
61.6512,476.1
61.6667,63.7
61.7116,95.5
61.7184,103.9
61.721,151.8
61.7427,83.2
61.7462,650.7
61.7619,16.7
61.7824,100.5
61.8012,280.8
61.8086,595.5
61.8163,61
61.819,866.9
61.8237,625.5
61.826,128.4
61.8359,726.2
61.8409,207.5
61.8438,197.5
61.8725,759.7
61.8777,16
61.8964,168
61.8997,130.5
61.9158,97
61.9206,159.6
61.9449,182.5
61.9558,86.3
61.9752,963.9
61.9833,272.7
61.9917,813.8
61.9947,16.9
62.0322,19.4
62.0483,537
62.0513,148.4
62.0535,138.9
62.0724,88.5
62.1038,219
62.1203,452.5
62.1236,153
62.1319,17.2
62.1502,120.2
62.1535,317.1
62.1595,761.4
62.1665,158.2
62.1698,144.9
62.1964,855.2
62.1994,844.9
62.2028,162.5
62.2405,149.3
62.2563,172
62.2602,16.6
62.2723,309.2
62.2771,151.3
62.2924,329
62.3256,119.5
62.3461,72.7
62.3719,219.3
62.3726,1076.5
62.3968,162.5
62.397,153.9
62.3973,89.9
62.3999,72.1
62.4132,167.8
62.4149,152.5
62.4434,162.6
62.4459,216.8
62.4471,544.5
62.4499,599.7
62.4515,156.6
62.4604,17.1
62.4874,165.8
62.4946,141.4
62.495,431.3
62.541,379.9
62.5455,87.6
62.5506,106.8
62.551,511.7
62.5532,367
62.5663,279.6
62.5771,339.8
62.6104,460.6
62.6362,254.2
62.6492,187.9
62.6679,348.4
62.7156,300.3
62.7165,329.4
62.7203,148.7
62.7345,378.7
62.7508,621.3
62.7537,663.7
62.7613,607.6
62.773,699.9
62.7773,278.1
62.7845,102.2
62.7877,99
62.7915,160.6
62.7983,316.9
62.8055,665.8
62.8103,537.1
62.8198,15.9
62.8229,107.8
62.8395,221.6
62.8507,307.2
62.8583,139
62.8608,215.7
62.8762,160.3
62.8822,61.6
62.8883,515.5
62.8991,87.6
62.9348,168.2
62.9373,412.6
62.9377,144.2
62.947,88.9
62.9555,127.2
62.9628,209.6
62.9741,586.2
62.9849,85.6
62.9993,1087
63.0002,86.7
63.0134,107.7
63.016,176.9
63.033,805.8
63.0512,374.5
63.0666,179.8
63.0795,138.4
63.0899,98.7
63.0926,106
63.0979,381.9
63.0993,16.8
63.1255,93
63.1302,16.6
63.1721,821.5
63.1882,17.4
63.2036,103.2
63.2341,136.6
63.2372,78.2
63.2791,196.6
63.2931,325.8
63.3023,209.7
63.3316,185.4
63.3429,381.4
63.3453,151.1
63.3463,376.7
63.3712,316.4
63.3885,189.4
63.394,349.8
63.4323,19.6
63.4425,305.3
63.4674,16.8
63.4789,83.3
63.507,388.1
63.5103,176.1
63.5543,724.7
63.5906,102.1
63.5971,116.3
63.6019,158.9
63.607,170.8
63.613,113.1
63.6271,363.2
63.6417,17.8
63.6478,118.1
63.6812,123.9
63.6958,78
63.7071,950.3
63.72,711.2
63.7299,96.8
63.7472,232.1
63.7486,591.5
63.7614,662.8
63.7724,130.1
63.8091,778.1
63.8124,128.3
63.8165,254.1
63.8171,165.1
63.835,337.8
63.8678,163.2
63.8825,95
63.9038,502.8
63.9053,91.5
63.9308,422.9
63.9329,379.5
63.9357,165.4
63.9363,738.7
63.9437,265.8
63.9507,131
63.9575,769.1
63.9753,733.9
63.9854,18.2
63.9865,16.7
63.9874,406.5
63.988,18.3
63.9897,475.1
64.0302,17.2
64.0324,137.8
64.0384,155
64.0477,232.9
64.0982,874.2
64.1002,16.7
64.1062,216
64.111,168.3
64.1154,92.7
64.1159,232
64.1271,546.2
64.1313,263.3
64.1354,18.1
64.1487,18
64.157,196.3
64.1604,70.3
64.165,99.3
64.1661,285.6
64.1795,108.9
64.1847,347.1
64.1932,20.1
64.1987,585.4
64.2042,16.2
64.2052,1048.7
64.2158,381.9
64.2205,353.3
64.2485,177.9
64.2521,545.5
64.2538,17
64.2619,161.5
64.2892,623
64.2939,379.7
64.2961,518.5
64.3029,87.4
64.3207,588.2
64.3265,856.8
64.3356,784.6
64.3453,76
64.3487,101.1
64.3594,140
64.374,400.6
64.3777,107.5
64.3794,228.7
64.4123,160.8
64.4335,377.5
64.45,117.5
64.4627,81.1
64.4671,598.9
64.4815,674.7
64.4836,978.8
64.4951,232.5
64.4964,629.2
64.5033,95.7
64.5623,162.6
64.5728,360.4
64.6059,399.9
64.6171,148.6
64.6233,291.6
64.6253,170
64.6264,229.5
64.642,180.6
64.6504,430
64.6677,544.6
64.6701,366.2
64.6707,18.3
64.6775,102.5
64.6801,423
64.6832,549.3
64.691,18.5
64.7087,90.4
64.7189,195.1
64.721,760.9
64.7236,382.3
64.7791,569.3
64.7987,116.3
64.8186,996.6
64.8298,652.6
64.8418,191.4
64.8575,158.1
64.8582,365.6
64.8908,107.7
64.8977,1003
64.899,593.5
64.9061,85.7
64.9194,147.9
64.9591,130.7
64.967,765.9
64.9839,119.6
64.9991,313.2
65.0019,989.9
65.0057,117
65.024,15.9
65.0361,765.6
65.0434,135
65.0456,204
65.0662,424.8
65.0807,535.1
65.1003,316.2
65.1017,255
65.1077,355.8
65.112,133.6
65.1147,108.2
65.1212,114.3
65.1226,249.4
65.1261,17.4
65.1284,596.3
65.1411,355.6
65.143,94.7
65.1496,108.8
65.1648,328.6
65.1955,99.6
65.2292,213.1
65.2372,157.2
65.2391,402.3
65.2461,16.7
65.2585,175.1
65.2658,228.2
65.2926,556.9
65.2992,360
65.3066,129.4
65.316,590.1
65.3274,156.4
65.341,99.1
65.3668,146.8
65.3808,211.2
65.3896,466.7
65.4002,148
65.4062,245.7
65.4081,362.7
65.4112,103.5
65.4156,149.8
65.4333,521.7
65.4342,19.3
65.4755,515.2
65.4813,627.5
65.4885,17
65.4917,17.1
65.4999,374
65.5054,548.1
65.523,181.2
65.554,88.3
65.5551,198
65.5654,81.2
65.5749,559.2
65.5787,698.4
65.5943,408.6
65.6202,86
65.6243,20.1
65.6266,294.4
65.6297,280.5
65.6374,295.2
65.6389,638.7
65.6391,534.2
65.6402,149.5
65.6503,554.8
65.6515,101.2
65.6542,16
65.6572,16.9
65.6589,380.2
65.6602,387.5
65.668,59.6
65.6772,19.5
65.6968,656.1
65.6985,162.1
65.7118,449.7
65.7421,751.4
65.7575,306.5
65.7656,138.8
65.7751,124.6
65.7836,130.5
65.7841,474.1
65.7889,84.7
65.7907,148.3
65.8132,378.8
65.8196,113.9
65.8246,119
65.8273,89
65.8293,739.1
65.8627,410.6
65.8641,578.1
65.8782,205.1
65.8854,794.9
65.9093,198.9
65.9167,134.9
65.9175,17.9
65.9344,76.6
65.935,17.7
65.9367,585.8
65.9543,351.9
65.9735,721.5
65.978,434.3
66.0189,93.2
66.0367,944.8
66.0394,432.6
66.053,192.7
66.0546,106.3
66.0563,16.7
66.0722,57.4
66.0884,16.7
66.0942,21.3
66.0994,148.9
66.102,130
66.1033,385.5
66.1191,149.9
66.1383,671.2
66.154,338.3
66.1721,135.9
66.1839,702.7
66.1938,405.8
66.198,309.1
66.2162,185.4
66.2814,144.7
66.3046,666.2
66.3066,125
66.3178,657.7
66.3694,158
66.3782,347.9
66.384,19.2
66.4099,456.3
66.42,389.1
66.4212,823.4
66.433,469.4
66.4386,317.8
66.4427,640.8
66.4756,111.7
66.4875,151.3
66.4888,417.5
66.5091,149.7
66.5253,191
66.5303,546.9
66.5487,81.1
66.5546,19.4
66.5691,857.3
66.5969,16
66.6194,80
66.6265,264.1
66.6461,219.2
66.657,489.3
66.6624,95.3
66.6693,498.1
66.6768,135.5
66.6991,89.5
66.7086,120.9
66.7346,296.5
66.7518,135.1
66.7547,16.3
66.7709,914.7
66.7752,164.5
66.779,135.3
66.7911,52.4
66.809,86.1
66.8112,114.7
66.8214,111.7
66.8255,89.9
66.851,524.1
66.8593,232.9
66.8732,84.3
66.8757,74.5
66.8858,234.6
66.9015,184.2
66.9226,99.1
66.9646,57.8
66.98,135.5
67.0061,79.9
67.0128,103.3
67.0252,505.2
67.0341,331.7
67.0405,212.9
67.0457,391.9
67.0529,151.7
67.0539,38.4
67.0935,394.3
67.1012,961.9
67.1152,228.3
67.1302,358.2
67.172,59.7
67.1878,292.6
67.1994,449.3
67.2172,218.7
67.221,113.4
67.2248,374.5
67.249,246.5
67.2526,626.5
67.2552,157.7
67.256,224.2
67.281,87.8
67.2852,18.1
67.287,52.2
67.2889,78.4
67.2996,83.6
67.3037,209.5
67.3153,203.3
67.319,92.6
67.3252,895.6
67.3321,122.1
67.3506,461.5
67.3778,496.8
67.3827,196.1
67.3833,373.4
67.4139,56.3
67.4143,185.1
67.4405,21.8
67.4577,181.2
67.4664,556.2
67.5037,839.1
67.5358,132.7
67.5379,828.9
67.5401,91.1
67.5484,190.2
67.5506,373.4
67.5758,97.8
67.5772,18.3
67.602,161.2
67.6093,300.5
67.6158,645.9
67.6192,85.1
67.6209,464.6
67.6215,18.2
67.6285,19.6
67.6317,148.1
67.6347,778.2
67.6352,674.8
67.6431,157.5
67.6738,336.4
67.6792,774.2
67.7041,82.9
67.7318,70.5
67.7352,638.4
67.7372,145.2
67.7524,88.1
67.7677,193.4
67.7687,356.4
67.7779,255.2
67.8334,17
67.8395,16.9
67.8537,112.6
67.8568,854.7
67.8646,1017.4
67.8794,122.2
67.8801,214
67.8949,153.6
67.9199,169.4
67.9321,21.4
67.9362,333.9
67.9426,169.2
67.9856,85.4
67.9871,442.8
68.0094,177.7
68.0236,919.3
68.0355,138.1
68.0545,526.5
68.0603,530.6
68.0643,571.9
68.0655,945
68.0971,390.8
68.1115,371.6
68.1464,178
68.163,86.6
68.188,20.6
68.2122,461.8
68.2225,405.7
68.2469,326.9
68.2526,146.1
68.3083,140.6
68.3275,148.6
68.3439,100.3
68.345,805.9
68.3552,563
68.3758,419.9
68.3785,259.9
68.3835,734.3
68.3939,491
68.3967,132.9
68.4103,177.7
68.414,300.4
68.4224,285.4
68.4394,125.7
68.44,181.7
68.4422,382.4
68.4577,581
68.4986,916.5
68.5167,406.1
68.5212,110.8
68.5362,61.3
68.5632,362.6
68.5696,162.5
68.5807,98.3
68.5921,142.1
68.5937,144
68.6287,289.4
68.6379,22.4
68.649,145.8
68.7102,122.9
68.7107,341.9
68.7302,16.9
68.7343,177.5
68.747,735.2
68.7491,308.6
68.8179,128.5
68.8214,204.9
68.8298,300.3
68.8355,139
68.8676,533.1
68.8882,59.1
68.9078,400.5
68.9409,711.5
68.9496,175.4
68.9544,142.9
68.9564,392.6
68.9889,251.4
69.0209,165.5
69.0401,443.7
69.043,91.7
69.0511,338.8
69.0579,270.4
69.0678,125
69.0768,547.3
69.0845,133.2
69.1201,192.7
69.1304,135.1
69.1314,203.3
69.1706,20.5
69.1838,331.9
69.1893,141.7
69.216,86.6
69.2207,103.9
69.2254,178.6
69.241,705.4
69.2607,352.5
69.2662,155.5
69.269,142
69.2951,82.6
69.3293,96.9
69.3582,858.1
69.3596,613
69.3625,612.8
69.3793,924.4
69.412,58.4
69.4305,108
69.4422,290.2
69.4681,74.4
69.5054,95.5
69.5302,372.4
69.5449,16.5
69.5692,596.6
69.5721,329.3
69.5847,119.1
69.6279,198.1
69.6448,460.2
69.6491,18.9
69.6627,130.2
69.666,310.1
69.6689,525.7
69.6729,169.5
69.6819,380.2
69.708,19.8
69.7226,84.8
69.7417,717.7
69.773,21.1
69.7977,132
69.8538,137.6
69.8665,361.2
69.9181,292.7
69.9677,825.8
69.9692,168.7
69.9783,127.9
69.9899,217
69.9993,149.1
70.0002,263.5
70.0124,170.9
70.0247,216.5
70.0392,205.1
70.04,181.7
70.0648,211.4
70.068,262.4
70.0691,532.4
70.0805,85
70.1023,84.9
70.1067,432.7
70.1131,148.4
70.2036,859.4
70.2072,133.8
70.2077,178.6
70.21,69.8
70.2235,16.8
70.2363,18.4
70.2453,226.7
70.2519,281.6
70.3422,97.3
70.3768,771.3
70.3809,109
70.3876,91
70.3915,92.9
70.3953,532.2
70.4112,720.7
70.4169,220.1
70.4431,87.9
70.4619,706.9
70.4705,223.2
70.4759,90.4
70.4769,416.6
70.484,88.3
70.4909,263.9
70.5697,99.3
70.5721,601.9
70.625,637.3
70.6382,95.7
70.6607,147.4
70.6623,114
70.6696,18.3
70.6884,17.7
70.7092,192.8
70.712,58.8
70.7183,306.3
70.7195,194.6
70.7441,122.4
70.8069,378.8
70.8116,185.6
70.8129,176.1
70.8206,182.6
70.8448,214.3
70.8574,389.4
70.8583,255.5
70.8588,87.1
70.8705,394.1
70.9081,304
70.9106,74.1
70.9159,764.7
70.9405,384.1
70.9464,89.6
70.9648,16.9
71.0222,769.7
71.0722,90.7
71.1233,863.3
71.1274,175.1
71.136,137.5
71.151,235.4
71.2288,145.3
71.2426,226.8
71.2815,577.6
71.2926,181.7
71.3156,19.5
71.3248,94.5
71.3267,257.9
71.3308,18.6
71.3437,188.8
71.3634,146.9
71.3711,103
71.3727,114.2
71.374,286.3
71.4126,510.4
71.4136,185.1
71.4262,104.4
71.4464,693.7
71.4563,161.4
71.486,172.4
71.4886,410.2
71.5215,177.6
71.5292,135.1
71.5322,17.6
71.549,135.1
71.5574,136.6
71.5578,126.8
71.5679,217.5
71.5889,508
71.6646,666.1
71.6672,449.8
71.6729,197.5
71.679,343
71.7009,194
71.7022,325.1
71.7155,20.5
71.7197,513.3
71.7465,85.3
71.7553,80.6
71.7664,683.6
71.7709,812.9
71.7836,155.1
71.7849,59.7
71.8,170.6
71.8123,718.6
71.8158,301.2
71.8298,96.8
71.8375,235
71.843,137.4
71.878,443.6
71.886,457.3
71.9074,340.6
71.9341,395.6
71.9531,415.6
71.962,118.2
71.9958,392.3
72.0236,179.3
72.03,514.8
72.0305,370.1
72.0366,101.3
72.0753,23.3
72.0804,361
72.0915,576.4
72.1065,87.2
72.1418,18.8
72.1488,633.1
72.1643,137.6
72.1827,268.9
72.2028,188.9
72.2125,381.7
72.2224,824.6
72.2256,195.2
72.2281,1201.2
72.2284,1260.6
72.2301,707.7
72.231,1347.8
72.2323,2350.5
72.2332,1017.8
72.2349,1970.5
72.2361,2463.2
72.2364,2550.2
72.2373,2668.7
72.2381,1896.5
72.2394,2685.4
72.2403,2089.5
72.2408,1811
72.241,1759.6
72.2415,1708.8
72.2421,3853.6
72.2428,2205.2
72.244,3358.6
72.2446,4057.2
72.2466,3486.8
72.2478,3039.3
72.2487,1401.7
72.2494,1383.3
72.251,1647.3
72.2524,800.2
72.2537,655
72.2557,107
72.2567,603.5
72.2585,18.3
72.2591,21.1
72.2608,24.3
72.2624,809.5
72.2822,202.7
72.306,188.6
72.3288,126
72.3337,604.4
72.3346,165.5
72.3364,153.8
72.3393,701.6
72.342,899.8
72.3532,335.8
72.3734,508
72.4391,90.9
72.4413,17.5
72.454,374.9
72.4659,85.6
72.4718,423.1
72.4945,101
72.5003,92.1
72.5138,79.1
72.5269,16.6
72.5491,98.1
72.5589,204.3
72.5643,17.3
72.6442,522
72.645,608.7
72.6527,322.1
72.6536,175.3
72.657,18.3
72.6649,659.5
72.6815,187.7
72.695,376.7
72.7066,738.3
72.7437,182.7
72.748,175.9
72.7531,399.3
72.7621,150.6
72.7792,19.9
72.7919,91
72.8217,583.1
72.8572,166
72.8851,741.2
72.9192,139.3
72.9233,392.2
72.9308,621.9
72.9368,744.6
72.9454,98.6
72.9797,19.8
72.9807,283.4
72.9964,92.3
73.0009,625.7
73.0077,514.2
73.0112,78.7
73.0147,107.1
73.0429,391.7
73.0501,96.1
73.0554,339.9
73.0644,91.9
73.0914,552
73.0978,61.3
73.1047,89.3
73.1137,765
73.1329,315.8
73.1466,21.8
73.148,493.3
73.1885,102.2
73.1897,613.7
73.1946,18.8
73.1954,348.8
73.221,537.4
73.242,857.8
73.2426,864.6
73.2513,105.7
73.2601,146.5
73.2677,372.7
73.2789,146.9
73.3304,1145.4
73.3324,557.7
73.3478,610.5
73.3707,633.3
73.3769,90.8
73.3859,119.7
73.3888,247
73.4068,627.1
73.4144,549.3
73.4159,134
73.4209,86.1
73.453,98.9
73.4538,367.8
73.457,21.1
73.5225,272.6
73.5472,139.8
73.5552,283.3
73.5585,110.5
73.5643,81.4
73.5922,81.1
73.6275,17.7
73.6383,82.3
73.6646,97.7
73.6677,817
73.6914,621
73.716,123.8
73.7371,704.2
73.7481,713.2
73.7693,848.3
73.7765,117.8
73.7886,427.8
73.7967,109.9
73.8028,158.8
73.8034,255.1
73.8056,304.6
73.8069,177.4
73.8194,98.6
73.8237,517.8
73.8421,144.8
73.8486,421
73.861,105.7
73.8898,88.3
73.8953,18.1
73.9077,83.3
73.9104,131.7
73.9202,287.5
73.9223,57.8
73.9266,94.9
73.9429,662.3
73.9563,331
73.9577,90.1
73.9778,145.6
73.9801,17.5
73.9884,206.9
74.0098,101.4
74.0165,19.1
74.034,18.4
74.0591,246.3
74.0597,2624.6
74.0718,16.5
74.1018,110.3
74.1313,90.5
74.1351,143.6
74.1391,16.4
74.162,102.8
74.1747,78.1
74.1951,485.8
74.1974,16.7
74.1989,351.6
74.2344,150.5
74.2446,299.3
74.2728,537.3
74.2826,594.2
74.2896,273
74.3164,756.7
74.3169,77.8
74.3436,611.7
74.3653,565.2
74.3921,103.4
74.3941,15.9
74.3957,316.6
74.4291,17
74.4309,695.4
74.4893,1037.1
74.5149,987
74.5221,146.6
74.5253,187
74.5275,75.5
74.5357,98
74.559,362.1
74.5757,16.9
74.5903,122.4
74.5932,94.4
74.5993,389.1
74.6034,186.4
74.628,359.4
74.6327,15.9
74.6455,679.7
74.6611,622.7
74.68,227.3
74.6834,15.8
74.6856,91.6
74.7046,82
74.7071,18.4
74.7289,675.1
74.7308,15.6
74.7752,311
74.8157,421.3
74.8171,102.7
74.8288,524.4
74.8391,499
74.8455,283.2
74.8514,155.2
74.8584,80.3
74.8664,317.5
74.8877,640.6
74.8898,352.2
74.8958,81.5
74.9132,307.5
74.9197,118.9
74.9551,154.1
74.9595,444.6
74.9978,288.6
75.004,1182.8
75.0225,81.3
75.042,16.1
75.0526,336
75.0636,418.6
75.0719,158.3
75.074,21.3
75.0999,79.7
75.129,86
75.1339,103.2
75.1452,87.5
75.1524,160.5
75.1878,136
75.1921,205.8
75.1943,343.2
75.2012,265.8
75.2432,138.4
75.2484,77.7
75.2737,357.4
75.2896,92.3
75.3016,520.1
75.3271,51.5
75.3449,678.2
75.3823,361.8
75.3994,106.2
75.4149,202.9
75.4248,388.5
75.4513,184.2
75.4565,16
75.4595,937.8
75.4678,224.8
75.4761,808.4
75.5215,545.9
75.5312,145.9
75.5369,86
75.5715,210.6
75.5724,186
75.5737,195.8
75.5789,244
75.5809,750.9
75.5812,662.4
75.6089,86.2
75.6171,222.3
75.6212,649.8
75.6279,683.5
75.6452,779.2
75.6795,177.9
75.6813,80.6
75.6855,331.7
75.688,478
75.6907,529.1
75.7086,170.7
75.7145,141.8
75.7293,305
75.7359,161.2
75.7378,136.1
75.7453,293.6
75.7541,129.6
75.7816,88.4
75.7856,361.9
75.8279,85.6
75.864,21.2
75.8785,15.7
75.8845,969.5
75.8981,775.3
75.9262,139.1
75.9423,98.7
75.9479,81.2
75.9707,227
76.0044,91.9
76.016,17.2
76.0558,94.2
76.0604,97
76.0758,957.6
76.0797,768.1
76.1295,370.6
76.1445,567.4
76.1479,177.7
76.1497,99.9
76.1666,16.9
76.1708,20.3
76.1745,211.4
76.1772,187.6
76.1835,233.1
76.1865,281.2
76.1884,111.8
76.243,316.5
76.2536,133.5
76.2569,57.7
76.2598,490.7
76.2737,17.7
76.2768,424.7
76.2929,376.9
76.3074,431.9
76.3091,697
76.359,244
76.3629,145.6
76.3704,96.7
76.3747,549
76.382,19.1
76.412,235
76.4211,718.4
76.4381,101.9
76.4603,161.7
76.4638,177.8
76.4679,394
76.4709,75.6
76.473,638.3
76.5084,106.9
76.516,319.9
76.5244,96.8
76.5467,786.9
76.5481,377.1
76.5568,175.7
76.5885,97.9
76.593,609.4
76.6256,294.1
76.6408,370.8
76.6425,84.1
76.6595,224.9
76.6822,84
76.7049,127.4
76.7118,83
76.7327,134.5
76.7354,285
76.7406,202.1
76.749,593.3
76.7535,576.6
76.7549,161.3
76.7673,330.5
76.7804,115.5
76.7964,689.1
76.7988,18.8
76.8321,73.5
76.8404,610.5
76.8467,150.3
76.8676,170.2
76.8725,614.7
76.8763,156.4
76.9038,17.3
76.9362,164
76.9546,84.6
76.9671,107.6
76.9701,214.1
76.9725,131.5
77.0089,20.2
77.0323,197.3
77.0348,19.4
77.0354,142.2
77.0383,111649.4
77.0596,106.2
77.0665,515.4
77.0807,205.3
77.1674,873.2
77.1997,1034.4
77.207,259.7
77.2181,85.9
77.2233,86.9
77.2485,89.5
77.2536,623.8
77.2617,77.3
77.2632,530.5
77.2649,99.5
77.2667,164.1
77.2764,364.2
77.2894,82.7
77.2969,313.5
77.3096,144.9
77.3191,148.2
77.3279,475.4
77.3334,158.4
77.3464,168.7
77.3537,86.3
77.3767,126.4
77.3831,162.4
77.3963,120.6
77.4031,18.4
77.4043,744.7
77.4075,79.5
77.4086,309.4
77.4162,59.7
77.4424,126.1
77.4526,339.4
77.4549,80
77.4689,15.5
77.4705,425.3
77.4837,114.4
77.4901,109.2
77.5364,333.1
77.5588,604.4
77.5626,669.9
77.5714,155.9
77.576,620.1
77.596,154.6
77.6073,526.5
77.6309,160.9
77.6542,632.1
77.71,174.1
77.7128,675.5
77.7309,94.7
77.7339,268.8
77.735,161.6
77.7716,381.8
77.7937,65.8
77.8331,899
77.8408,268.7
77.8492,20.2
77.862,357.3
77.8746,646.6
77.8919,468.7
77.9237,88.8
77.9257,512
77.931,319.9
77.9361,767.2
78.0003,275
78.0334,711
78.0366,736.9
78.0383,515.2
78.0416,4591.3
78.0593,818.8
78.0653,20.9
78.07,107
78.0826,487.9
78.0928,145
78.096,130.1
78.117,164
78.1198,177.4
78.137,661.3
78.1465,166.7
78.1661,308.6
78.1939,396.2
78.2052,19.8
78.2098,75.4
78.2588,581.7
78.2746,88.7
78.303,295.9
78.3055,17.8
78.335,119.4
78.3435,736.4
78.3487,19.7
78.3577,178.9
78.3947,617.9
78.4105,83.4
78.4225,407.1
78.4274,576.9
78.4284,157.5
78.4484,144
78.4552,17.3
78.4614,89.6
78.4632,224.5
78.474,79.6
78.4828,377.1
78.4833,114
78.486,456.7
78.4991,177.6
78.5235,199.8
78.5433,113.7
78.5451,95.3
78.567,105
78.5897,321.8
78.5991,91.8
78.608,307.3
78.6627,406.9
78.6895,259.9
78.6901,401.8
78.6963,99.4
78.7017,537.8
78.732,167.7
78.7899,227.1
78.7933,113.2
78.7983,117.5
78.8014,108.9
78.8071,323.9
78.8113,55
78.8226,1073.2
78.8398,748.8
78.8515,373.4
78.9199,57.3
78.9218,278.1
78.9281,301.6
78.9284,324.2
78.9312,399.8
78.9318,97.9
78.9352,851.9
78.9433,108.6
78.9442,248.7
78.9459,953.5
78.9577,306.8
78.9886,436.2
78.9892,209.8
78.9967,100.5
79.0046,18.2
79.0114,478.6
79.0189,392.1
79.0398,249.2
79.0404,332.8
79.0458,258.1
79.0539,2043.6
79.1008,101.6
79.1072,224.8
79.1428,416.2
79.1859,683.2
79.2309,499.8
79.2502,770.5
79.3047,137.6
79.3239,637.3
79.3418,308.3
79.3614,60.7
79.3789,371.1
79.388,312.3
79.4108,273.1
79.4202,107.9
79.4293,509.5
79.4356,283.1
79.4549,193.7
79.4606,368
79.4915,181.3
79.5133,919.7
79.5144,508.5
79.5476,103.7
79.5493,193.3
79.5635,753
79.5744,160.6
79.5756,1073
79.5987,127.9
79.6493,268.2
79.6587,18.4
79.6749,122.7
79.6902,180.6
79.7087,306.7
79.71,179.8
79.7371,19.4
79.7501,477.3
79.7667,634
79.7862,177.8
79.8028,323
79.8169,142.4
79.8221,16.6
79.8284,165.6
79.8323,704.2
79.8824,177.1
79.9,208.7
79.9072,663.5
79.916,431.1
79.9736,148
79.9798,106.1
79.9919,667.5
80.0021,497.3
80.0182,72.1
80.038,134.2
80.0425,744.8
80.0635,844.3
80.0674,17.4
80.0824,85.9
80.0946,140.8
80.096,314.1
80.1612,473.7
80.1636,163
80.2003,509.6
80.2076,315.1
80.2531,104.4
80.2538,184.4
80.2901,85
80.2978,382.1
80.3087,55.8
80.3157,88.6
80.3231,109
80.3339,354.4
80.3499,652.2
80.4296,182.4
80.442,259.3
80.4581,104.6
80.4951,577.9
80.5029,144
80.5233,344.2
80.5527,325
80.5586,16.5
80.5678,237.6
80.5727,198
80.5875,295.4
80.5888,307
80.5923,822.1
80.6012,738.3
80.6065,1501.5
80.6263,180.2
80.6364,307.9
80.6548,888.1
80.664,309.8
80.6768,412.4
80.6991,16.5
80.7274,99.8
80.7503,752.7
80.7549,148.1
80.7655,318.8
80.7682,140.1
80.7812,802.6
80.7888,529
80.7918,695.2
80.7948,179.2
80.8125,96.8
80.8241,350
80.8417,89
80.8496,86.4
80.8592,102.5
80.8736,93.4
80.8746,128.8
80.8856,83.4
80.8947,93.2
80.9129,16.6
80.9445,17.8
80.9476,42566.6
80.958,180.7
80.9693,125.7
80.9846,164
81.0228,700.3
81.0406,290.6
81.0425,421.8
81.0696,1073.4
81.0759,600.1
81.1178,166.3
81.144,273.5
81.1598,340.3
81.1621,171.4
81.1641,684.4
81.1674,184.5
81.1688,674.6
81.1694,1125.4
81.1701,661.8
81.1713,1069.5
81.173,397.9
81.175,149.6
81.1832,164.8
81.2051,403.8
81.2191,152.5
81.2247,413.8
81.2488,108
81.2819,102.4
81.2831,554.6
81.2937,552.4
81.2998,151.4
81.3122,97.9
81.3178,19.5
81.3196,144.1
81.3355,546.7
81.3412,265
81.4166,114.1
81.4442,163.7
81.4594,193.9
81.4716,338.4
81.4802,113
81.4954,91.7
81.5001,387.6
81.5075,362
81.5248,387.5
81.5313,676
81.5361,327
81.5541,187.9
81.5838,107
81.5917,317
81.6005,115.5
81.6022,110.6
81.6043,19.8
81.6381,74.6
81.6894,67.5
81.6932,62.4
81.6947,343.5
81.7182,83.8
81.7198,81.7
81.7232,1161.6
81.7308,198.5
81.7552,152.1
81.7578,18
81.7623,310.2
81.7826,509.2
81.8236,206.4
81.8256,477.6
81.8375,640.4
81.8793,691.5
81.8938,372.7
81.9004,641.7
81.9159,21.3
81.9237,823.3
81.9542,273.2
81.9611,88.5
81.968,489.9
81.9725,400.7
82.0119,371.1
82.0479,984
82.067,424.3
82.0701,92.7
82.0737,90.6
82.075,98.1
82.0793,307.3
82.0799,93.5
82.0811,197.6
82.104,371.9
82.1238,648.6
82.1365,208
82.1475,343.4
82.1515,353.6
82.1605,336.1
82.1653,21.1
82.1668,113
82.1772,882.4
82.1875,347.9
82.1952,459.4
82.1972,593.3
82.2104,168.9
82.215,249.3
82.2513,528.6
82.3024,172.1
82.3133,126.2
82.327,16.5
82.3338,159.9
82.3685,336.7
82.3906,114.8
82.3914,416.4
82.4207,92.1
82.4301,138
82.4556,649.6
82.4739,149.4
82.4899,169.4
82.5163,324.4
82.5239,495.9
82.5327,764.5
82.559,57.3
82.5637,191.3
82.5889,697.5
82.617,280.7
82.626,290.8
82.6423,169.8
82.6433,147.8
82.659,109.3
82.6659,225.2
82.7002,512.8
82.7191,864.6
82.7356,271.5
82.7458,16
82.7575,126.9
82.7786,80.7
82.7858,618.5
82.7985,667.7
82.8006,86.2
82.8457,17.2
82.8518,97.1
82.8588,194.2
82.8629,296.7
82.886,81.6
82.8893,156.6
82.894,426.5
82.9124,17.5
82.9245,431.3
82.9446,13735.8
82.9503,515.4
82.9518,241.9
82.968,110.2
82.9712,200
82.9943,83.5
82.9973,562.5
83.0014,227.5
83.0025,889.3
83.0095,474.6
83.0189,418.2
83.0214,111.5
83.0222,157.2
83.0374,154.2
83.043,580.4
83.0445,590.7
83.0476,104.2
83.0493,407.2
83.0504,23.1
83.0853,23.4
83.1089,540
83.1345,91.5
83.1422,17.3
83.1477,63
83.2157,338.7
83.2223,260.2
83.2327,357.7
83.2449,163
83.2532,316.9
83.2701,81
83.3103,16.5
83.3114,165.6
83.3166,594
83.3423,153.8
83.3433,99.6
83.3568,428.5
83.3769,312.6
83.3814,930.1
83.4024,190.9
83.4051,357.4
83.4475,236.1
83.4493,382
83.4544,728.7
83.4666,16.7
83.4704,90.4
83.4765,380.5
83.4836,287.4
83.4888,21.1
83.527,121.7
83.549,630.8
83.5934,154.6
83.6002,556.3
83.6146,195.4
83.6193,493.7
83.6298,167.8
83.6529,175.4
83.6617,411.5
83.7298,93.3
83.7667,423.8
83.7813,129.8
83.7851,179.8
83.7929,170.5
83.7974,852.3
83.8122,723.9
83.8179,420.8
83.8248,151.6
83.8313,444.1
83.841,242.6
83.8433,298
83.8913,387
83.9114,137.7
83.932,319.9
83.9356,270.6
83.9419,243.6
83.956,106.2
83.9682,412.6
84.0075,155.2
84.0364,83.8
84.0441,2421.8
84.0678,213.9
84.0699,16.7
84.1236,17.4
84.1469,20.4
84.1648,775.2
84.1662,518.9
84.1857,105.8
84.2144,323.1
84.2449,236.9
84.2686,310
84.2782,104.8
84.28,171.3
84.2812,19.2
84.2864,138.5
84.3208,657.4
84.3316,273
84.3444,18.1
84.35,220.5
84.3542,216.3
84.3578,324.1
84.3695,340.3
84.382,669.6
84.3935,428.4
84.4151,142.6
84.4328,206.8
84.4395,255.1
84.4505,224.4
84.5159,18.1
84.5271,289.2
84.5345,879
84.5442,710
84.5478,87.9
84.6013,633.6
84.6684,19.9
84.691,18.1
84.7074,17.2
84.7571,16.4
84.7695,577.9
84.7789,509.3
84.802,378.2
84.8169,382.2
84.8378,160.7
84.8452,167.9
84.8627,80.2
84.8818,18.8
84.8885,93.2
84.9145,134.9
84.9241,125
84.9595,14698
84.9992,125.4
85.0218,91.9
85.0281,560.7
85.0386,153.9
85.0414,206.4
85.0589,17
85.074,399.9
85.0873,155.9
85.1544,747.6
85.1606,146.2
85.1853,204.8
85.1948,67.1
85.2126,491.9
85.2204,145.5
85.2477,380.3
85.2493,17.6
85.2535,18.1
85.2681,90.9
85.2757,785.7
85.3129,157.6
85.3253,184.5
85.3363,322.1
85.3547,166.7
85.3563,769.8
85.3638,497.8
85.3745,595
85.3758,571.4
85.3787,339.8
85.3852,101.5
85.3863,16
85.405,283.3
85.4145,21.9
85.4341,93.9
85.4635,735.3
85.4875,264.6
85.5119,79.4
85.5365,425.2
85.5414,156.6
85.5767,96.3
85.5967,750.4
85.5997,773.3
85.6205,114.1
85.6325,158.6
85.6544,602.9
85.6562,100.2
85.6574,195.4
85.6667,120.9
85.6747,483.7
85.6825,79.3
85.7553,678.2
85.7642,90.9
85.7692,243.9
85.7842,400.3
85.7901,915.6
85.8022,92
85.818,115.2
85.8183,206.8
85.8185,203
85.8425,579.1
85.8612,127
85.8703,62.8
85.8982,360.8
85.9184,168.5
85.9601,163.4
86.0338,290.2
86.0598,25641.8
86.0691,821
86.0962,126629.8
86.1153,97
86.1221,205.9
86.1718,569.7
86.1727,152.5
86.2053,16.4
86.2236,117.5
86.2688,516.7
86.2806,996.8
86.308,445.1
86.3157,155.2
86.3175,540.4
86.326,128.1
86.3307,363.6
86.3822,677.9
86.4035,167.5
86.408,59.1
86.4131,318.7
86.4315,128.2
86.4363,316.4
86.4514,640.4
86.5065,618.5
86.515,126
86.5654,191.6
86.5813,215.5
86.5821,96
86.583,236.9
86.6104,596.8
86.6542,83.3
86.6566,84.3
86.6619,768.2
86.6812,772.5
86.6901,18.5
86.6937,594.1
86.7071,229.4
86.7146,695.9
86.7451,740.7
86.7612,845.5
86.7725,92.9
86.774,189.5
86.778,139.2
86.7942,100.6
86.8096,281.6
86.8172,317.6
86.8222,344.3
86.824,184.8
86.8456,19.5
86.8589,336.9
86.8635,384
86.8646,91.3
86.8778,360.2
86.8854,99.1
86.8975,840.1
86.8999,234
86.9136,91.9
86.9183,415.8
86.9391,141.8
86.94,612
86.9525,132.7
86.9563,584.6
86.9921,379.4
86.9996,17
87.0013,152.3
87.005,1231.2
87.0165,730.6
87.0257,680.6
87.0889,124.7
87.0994,1337.5
87.1027,18.3
87.1086,76.1
87.1237,648
87.1316,103.5
87.1978,127.5
87.1996,172
87.2121,214.2
87.2339,219.3
87.3148,135.3
87.3197,159.4
87.3311,327.8
87.3359,92.3
87.3519,17.8
87.3527,201.2
87.4004,733.5
87.4163,859.3
87.4316,161.3
87.5456,62.8
87.5466,114.5
87.5574,19.3
87.5633,109.2
87.5681,416.4
87.5745,374.7
87.5833,710.4
87.5841,865.3
87.6059,19.9
87.6084,129.3
87.6226,627.1
87.6338,131.3
87.6386,941.4
87.6516,88.7
87.6828,101.8
87.6952,689.7
87.7123,600.4
87.7165,248.6
87.7282,17.1
87.7317,231.4
87.7471,20.4
87.7522,101.5
87.7582,472.8
87.7609,387.9
87.7706,88.2
87.7842,121.5
87.8143,106.1
87.8164,169.2
87.8252,79.8
87.8597,22.2
87.8664,20.4
87.8763,506.8
87.8864,720.7
87.8883,152.5
87.9033,844.9
87.9194,509.4
87.9206,343.6
87.9532,438.4
87.9538,146.3
87.9632,91.3
87.9698,562.7
87.9707,17.3
87.9885,164.7
88.0391,5158
88.053,958.7
88.0608,190.5
88.0755,182.8
88.0903,171.9
88.1525,567.5
88.192,17.2
88.2102,150.8
88.2297,237.8
88.2626,605
88.2646,508.2
88.2969,288
88.3106,23.6
88.3394,322.6
88.3589,431.2
88.3988,1083.3
88.4115,525.9
88.428,21.1
88.4412,360.7
88.4529,329.3
88.4947,796
88.5003,87.7
88.5226,17.7
88.527,365.2
88.564,359.6
88.5757,206.1
88.5868,582.6
88.6087,414.2
88.6243,63.3
88.6333,469.8
88.6528,557.3
88.6597,158.5
88.6887,163.5
88.693,722.2
88.7333,419.2
88.7422,349.7
88.7649,309.6
88.7998,93.6
88.8167,19.1
88.8192,74.8
88.8432,144.6
88.8639,355.5
88.8895,399.1
88.9147,18.7
88.9411,778.1
88.9448,16.6
88.9522,29.1
88.9559,521.8
88.9682,27.3
88.9862,568.7
88.9959,644.2
88.9973,99.4
89.0246,285
89.0476,511.7
89.0531,225.3
89.0647,437.9
89.1049,337.5
89.1094,546.6
89.1266,65.6
89.1381,573.5
89.1926,19.2
89.204,90.3
89.2101,456.4
89.2115,678.3
89.2158,355.3
89.2447,371.7
89.286,99.6
89.4035,152.7
89.4197,845.5
89.4214,864
89.4721,587
89.4756,569.5
89.4985,348
89.5324,410.8
89.5335,79.3
89.5723,20.4
89.5732,578.5
89.5951,811.7
89.6484,18.5
89.6796,87.5
89.6895,197.5
89.6996,93.7
89.771,20.5
89.7871,806.5
89.8351,105.8
89.8506,176.9
89.9248,257.3
89.9484,321.7
89.9635,356.9
90.0113,524.9
90.0134,555.8
90.0342,781.3
90.039,551.9
90.0545,373.9
90.0848,120.2
90.0944,561
90.1091,98.6
90.1175,962.1
90.2727,288.8
90.2909,17.7
90.2926,16.5
90.3028,177.8
90.3777,187.3
90.4421,222.2
90.4725,133.1
90.4912,23.7
90.4974,928.6
90.5214,83.4
90.5224,389.4
90.5368,80.2
90.5476,372.6
90.5773,168
90.5818,24.7
90.6078,389.2
90.6429,99.9
90.6531,269.3
90.6638,138.9
90.7102,301.6
90.7124,103.6
90.7488,369.7
90.7568,148.9
90.7843,953.6
90.7966,22.5
90.8081,19.4
90.8153,198.3
90.83,501.7
90.8318,159.8
90.8351,82.4
90.8439,298.9
90.8464,143.5
90.8922,84.1
90.8927,82.5
90.903,43.9
90.9376,134.5
90.9447,531.5
90.9475,2951.5
90.9764,5975.9
91.0061,576
91.0112,18.2
91.0355,515.3
91.0541,1966.3
91.0606,623.4
91.0706,383.6
91.1118,74.8
91.1159,23.3
91.133,18
91.1415,82.2
91.1776,422.7
91.1942,111.9
91.2327,385.2
91.2414,18.1
91.2472,18.6
91.3129,578.6
91.3221,230.1
91.3437,315
91.371,406.4
91.4232,375.8
91.442,128.1
91.4446,179.1
91.4455,469.2
91.4891,130
91.4972,78.6
91.5017,403.8
91.5103,228.4
91.5289,20.8
91.5705,435.3
91.5861,16.4
91.5968,162.6
91.6038,373.8
91.612,592.6
91.6197,17.7
91.6526,17.5
91.6713,19.1
91.6748,760.2
91.6795,268
91.6878,59.7
91.7023,19.1
91.7666,119.3
91.7874,72.1
91.8086,18.6
91.8163,148.4
91.82,1118.3
91.8315,86.3
91.8336,694.9
91.8393,387.9
91.8684,18.8
91.8771,142.1
91.9122,408.3
91.9228,322.5
91.9448,244.7
91.9463,93.9
91.9479,56
91.9525,161.3
91.9564,526.3
92.0493,94.8
92.1145,105.1
92.131,689.1
92.167,129.8
92.1826,355.1
92.1848,93.2
92.186,126
92.1998,77.9
92.2054,16.7
92.2396,181.9
92.2453,170.7
92.2799,726.1
92.282,225.3
92.3074,91.7
92.3409,947.8
92.3618,182.3
92.388,91.2
92.41,18.4
92.4142,171
92.4461,380.5
92.4499,175.6
92.4513,555.1
92.4625,19
92.4965,87.9
92.559,75.1
92.5734,110.3
92.5965,134.4
92.6172,526.7
92.6205,398.3
92.6539,416.4
92.6986,608.4
92.6995,863
92.7089,827.5
92.7196,163.3
92.7364,318.8
92.7375,546.6
92.7952,671.5
92.8295,652.1
92.8333,89.8
92.8583,165.1
92.8816,17.6
92.8943,130.5
92.9385,844.6
92.957,18.5
92.962,93.6
92.9662,267.3
92.9692,197.2
93.0125,344.7
93.014,437.8
93.0236,91.8
93.0334,26.3
93.0544,752.9
93.0621,92.2
93.0944,562.2
93.1054,253.7
93.1138,587.6
93.1437,91.1
93.1476,166.5
93.1824,349.2
93.2031,1358.9
93.234,1005.9
93.2361,286.6
93.2391,572.1
93.2473,199
93.2497,125.6
93.2764,552.9
93.2788,17.2
93.3089,211.7
93.3299,15.7
93.3736,169.8
93.378,131.8
93.3917,94.8
93.4153,548
93.4219,104.2
93.4477,619.5
93.4739,638.3
93.5038,155.4
93.5667,161.8
93.5679,761.2
93.5745,159
93.5778,521.1
93.6116,60.4
93.6213,1111
93.6435,779.5
93.6719,300.6
93.6778,107.9
93.6788,765.6
93.6888,529.7
93.6996,119.4
93.7593,242.5
93.7694,202
93.8035,117.5
93.8523,311.7
93.8579,152.5
93.8625,254.7
93.9146,16.5
93.92,322.4
93.9294,260
93.9334,903.7
93.9566,300.9
93.9834,184.3
94.0037,194.4
94.0045,117.5
94.0151,176.1
94.0381,22.1
94.0411,65103.9
94.0425,62.6
94.1419,101.4
94.1958,1158
94.1997,74.2
94.2025,179.3
94.204,533.8
94.2168,631.7
94.2281,398.5
94.2396,258.8
94.2747,259.5
94.2905,163.7
94.2934,17.7
94.319,17
94.3276,770.5
94.3522,110.1
94.3542,136.4
94.3683,837.7
94.3793,149.5
94.3801,315.9
94.4086,179.1
94.4245,274.5
94.4531,106.8
94.5261,181.1
94.5429,88.6
94.5759,152.8
94.5798,588.9
94.5841,206
94.5871,435
94.5916,623.9
94.5966,129.5
94.6366,605.8
94.6484,371.2
94.6682,209.6
94.6978,89.6
94.7,295.6
94.7332,20.1
94.734,105.7
94.7909,381.6
94.796,522.6
94.802,17.7
94.8164,97.2
94.8239,381.2
94.8294,225.7
94.8342,723.3
94.8608,85.5
94.8625,825.1
94.8642,539.8
94.8752,247.3
94.8915,983
94.9084,76.5
95.0355,24.4
95.0445,1224.8
95.0455,27.6
95.0489,387783
95.051,27
95.0512,24.1
95.052,21.8
95.0539,621.8
95.0624,31.9
95.0786,122.1
95.0816,59.1
95.0854,1398.7
95.0923,150.1
95.1089,171.7
95.1216,146.6
95.1587,89.2
95.1606,19.9
95.1638,413.6
95.1803,493.4
95.1913,129.7
95.218,390.2
95.2332,289.8
95.2366,872.6
95.2413,478.4
95.2663,181.8
95.2714,143.9
95.3015,788.4
95.3024,211.2
95.331,384
95.3437,20
95.3726,56.9
95.4965,544
95.5238,153.1
95.5511,651
95.5615,175.5
95.5643,364.4
95.6044,17.7
95.6259,963.7
95.6326,717.4
95.6388,80.4
95.7171,18.4
95.7279,428.9
95.7891,512.7
95.8093,92.5
95.8164,20.5
95.8605,363.4
95.8625,365.5
95.877,552.3
95.8816,171.7
95.8832,337.1
95.8848,931.1
95.9013,602
95.9599,232.6
95.9641,741.6
96.0067,130.5
96.0181,367.4
96.0218,554.6
96.025,209.2
96.0396,269.2
96.0477,20.8
96.0523,17799.5
96.0621,327.2
96.0909,154.1
96.1095,195.6
96.1244,19.3
96.2031,140.5
96.2083,94.1
96.2229,582.3
96.2458,238.7
96.2932,884.9
96.303,435.8
96.3047,245.2
96.3466,960.2
96.3765,100.6
96.4049,481.9
96.4221,171.7
96.4561,92.4
96.4576,167.2
96.4825,730.6
96.5069,102.8
96.5224,128.9
96.5272,883.9
96.5669,147
96.5836,351.7
96.5996,124.7
96.6393,146.1
96.7068,393.7
96.7357,341.7
96.762,330.4
96.8168,844.2
96.8274,172
96.8686,231.1
96.8944,88.6
96.9026,832.2
96.9216,130264.1
96.923,648.7
96.9299,145.7
96.9376,123.7
96.9524,310.3
96.9794,337.3
97.0074,119.4
97.0104,31.3
97.0146,563.1
97.0282,19.1
97.037,59.9
97.0532,34.7
97.0555,24.4
97.1008,156.5
97.1049,93.5
97.1069,292.2
97.109,828.3
97.1756,306.9
97.1927,89
97.2089,417.4
97.2118,152
97.2288,345.5
97.2584,739.3
97.27,463.4
97.2737,176.3
97.311,302.3
97.3571,108
97.3627,151.2
97.3737,83.1
97.381,351.2
97.4019,724.7
97.4509,142.4
97.4543,1044.9
97.4577,898.6
97.4623,342.4
97.4666,307
97.5057,398.1
97.5081,153.1
97.5427,357.3
97.5685,815.8
97.57,171.3
97.5905,178.7
97.7146,710.1
97.7232,93.9
97.7307,20.4
97.7638,97.9
97.765,116.5
97.7953,73.2
97.8044,175.1
97.8813,178.1
97.9012,84.2
97.9226,954.9
97.9452,107.2
97.9569,224.1
98.0328,151.8
98.0838,22.4
98.0889,186.1
98.1034,90.2
98.1236,175.9
98.132,920.4
98.1465,108.2
98.1728,97.1
98.1834,98.5
98.2325,395.4
98.2686,750
98.2896,82.9
98.2917,252.2
98.3397,53.9
98.3443,177.9
98.3923,1001.9
98.4083,209.4
98.4128,436.2
98.4409,277.5
98.444,301.3
98.5039,407
98.5169,191.9
98.5275,356.4
98.5373,486.3
98.5415,406.2
98.5712,18.6
98.5743,547.2
98.577,545.5
98.5928,215.3
98.6307,369.8
98.635,168
98.6389,97.6
98.6444,358.2
98.697,190.2
98.8545,470
98.8607,530.1
98.8742,186.7
98.9186,34106.9
98.9196,3901.7
98.9222,847.1
98.9294,64.2
98.9407,127.7
98.9506,93.7
98.9524,17.5
98.9751,10374
98.9823,422.3
98.9839,48.6
99.0148,832.8
99.06,1043.4
99.078,177.4
99.0915,181
99.1379,116.8
99.1612,340.3
99.1614,345.9
99.1809,150.7
99.1855,116.5
99.2139,446.7
99.2533,94.3
99.2816,24.3
99.2966,316.1
99.3349,673.1
99.3693,172.3
99.3884,375.2
99.3923,93.7
99.4028,309.3
99.4075,19.2
99.4161,184
99.4244,125.9
99.4524,92.1
99.457,378.5
99.4585,755.6
99.4817,751.5
99.5342,164.8
99.5355,429.7
99.5612,158
99.5891,577.7
99.6013,545.5
99.6191,785.9
99.6751,103.1
99.6803,406.3
99.7024,478.2
99.7096,360.6
99.7136,106.7
99.7653,185.4
99.7813,341.3
99.8086,193.3
99.8416,516.7
99.8514,368.5
99.9165,191
99.9208,19.8
99.9336,169.8
99.9605,81.4
99.9969,415
100.0122,690.7
100.0339,17
100.0363,192.6
100.0462,82.8
100.0717,263.1
100.0766,110.3
100.0908,105.9
100.1513,573.9
100.1746,147.2
100.182,19.1
100.1859,549.1
100.189,66.2
100.2024,179.8
100.2141,144.2
100.2219,391.9
100.2241,466.7
100.228,202.8
100.2663,88.7
100.2802,725.6
100.3213,336.6
100.3348,836.7
100.3662,106
100.4085,148.7
100.4256,199.9
100.4371,445.5
100.5236,68.8
100.5501,354.8
100.5875,529.8
100.5994,386.5
100.6024,703.6
100.6673,407.1
100.6867,189.7
100.694,298
100.7044,698.7
100.7376,17.2
100.7693,664.9
100.7948,165.3
100.8126,768.5
100.8274,969
100.8828,20.7
100.892,657.7
100.9168,457.5
100.9352,152.2
100.961,183
100.9838,169.4
100.994,406.2
101.0108,167.1
101.0469,1283
101.0578,158.1
101.0667,152.7
101.0707,718.2
101.0789,77.8
101.0916,199.5
101.0981,93.4
101.1463,86.1
101.149,162.7
101.157,19.4
101.2035,97.2
101.2119,607.9
101.2188,90
101.223,76.9
101.2588,18.5
101.3402,93.2
101.3602,143.8
101.3739,18.8
101.4405,184.7
101.4554,176.4
101.4626,130.4
101.4951,157.9
101.505,172.9
101.523,370.4
101.5364,153.5
101.6137,839.9
101.6242,153.1
101.6459,103.7
101.6559,131
101.6638,19.8
101.6705,590.8
101.6753,59.6
101.6772,984.5
101.6781,17.5
101.6876,338
101.7068,236.8
101.7464,208
101.7765,331.5
101.7812,232.3
101.9006,263.5
101.9106,301
101.9635,163.7
102.0067,132.3
102.0145,296.2
102.019,496.8
102.0548,1781.7
102.065,446.2
102.0717,106.5
102.093,167.5
102.1019,907.9
102.1327,99
102.1487,186.2
102.1507,208
102.1575,207.3
102.1888,162.4
102.1971,354.1
102.2088,248.3
102.2171,379.2
102.2558,188.4
102.2881,312.1
102.3337,372.2
102.3355,229.2
102.339,233.1
102.3557,212.8
102.369,140.9
102.3893,151.8
102.4639,156
102.5146,129
102.5508,123.2
102.564,84.3
102.608,159
102.6211,508.2
102.6232,560.7
102.6643,561.5
102.6897,799.4
102.6927,146.2
102.695,697.5
102.7642,215.3
102.7698,18.7
102.7841,66.7
102.7936,94
102.8,613.4
102.8259,382.2
102.8648,19.8
102.8735,166.4
102.8818,228.7
102.8996,217.4
102.9241,1018.2
102.9678,139.4
102.9684,179.8
102.9701,401.8
102.978,84.2
103.0219,212.3
103.0381,716.6
103.0429,90.6
103.0447,58.9
103.0466,256.7
103.0814,677.3
103.0818,828.7
103.0935,681.1
103.0963,82.1
103.1016,391.8
103.1091,305
103.1198,110
103.1261,649.4
103.2053,192.7
103.2079,667.3
103.2184,166
103.2213,18.8
103.2258,918.5
103.2845,326.2
103.3212,95.5
103.3477,369.1
103.3764,19.8
103.4635,539.8
103.5217,738.5
103.5309,83.1
103.5703,441.8
103.5716,100.2
103.6956,16.4
103.6983,336.6
103.7123,100
103.7338,693.7
103.7444,16.2
103.7613,360.5
103.7849,18.8
103.8107,274.1
103.8227,156
103.834,344.3
103.8503,194.2
103.8636,17.2
103.8764,201.3
103.8967,611.9
103.9002,1061.3
103.9025,237.5
103.9037,178.1
103.9083,336.4
103.9148,69.9
103.9194,1217.5
103.931,852.9
103.9356,80.3
103.9471,106.7
103.9792,276.5
103.9911,350.3
103.9982,763.1
104.0347,183.5
104.0494,23.6
104.0805,16.4
104.095,172.7
104.1068,500913.3
104.1189,566.8
104.1278,631.8
104.13,17.9
104.2135,829.5
104.2221,113.1
104.2353,130.8
104.2751,391.2
104.317,552.5
104.323,572
104.3291,121.4
104.3578,297.5
104.3725,832.7
104.4195,561.9
104.4652,394.9
104.4865,177.8
104.49,353.7
104.505,193.6
104.5586,361.2
104.5746,88.7
104.5841,153.3
104.6083,401.9
104.6122,718.4
104.6451,100.2
104.6636,121.3
104.6713,20.1
104.7596,942.5
104.7672,75.8
104.7726,89.8
104.7795,175.6
104.8329,194.7
104.8393,196
104.8511,687.6
104.8604,93.5
104.8705,88.4
104.8717,175.3
104.8776,58.3
104.8875,90.7
104.9147,359.7
104.9479,122.5
104.951,397.6
104.9632,4487.5
104.9659,82
104.9786,166.1
104.9791,160.7
104.9921,1659.7
105.0418,166.8
105.0445,35734.2
105.0585,17.5
105.075,245.5
105.0758,74.6
105.0952,174.6
105.1102,17098.4
105.1628,219.8
105.1673,182
105.1977,416.2
105.1991,362.2
105.2021,19.3
105.2193,97.6
105.235,565.4
105.2417,16.8
105.287,74.8
105.3013,122.7
105.3171,70.2
105.3335,82.6
105.3774,279
105.3888,495.9
105.3912,539
105.3987,120
105.402,531.9
105.4551,104.6
105.4685,18.7
105.4878,87.2
105.5142,17.7
105.6216,596.8
105.6475,60
105.6883,272
105.6984,116.6
105.7082,199
105.717,819.6
105.7197,295.7
105.7507,584.5
105.7527,340.4
105.7993,192.3
105.8109,111.9
105.8327,18.2
105.8392,101.4
105.8781,245.4
105.8834,194.3
105.9142,17.4
105.9208,318
105.9218,179.2
105.9273,730.5
105.9298,492.5
105.9432,98.8
105.9463,94.1
105.9636,17.9
105.9687,350.6
106.0479,611.7
106.0499,156.5
106.0647,18.9
106.0782,473.9
106.111,128.7
106.1147,399.8
106.1493,157
106.1769,21.2
106.181,628.9
106.1934,17.3
106.1992,182
106.2473,935.5
106.293,528.8
106.3207,725
106.3555,245.2
106.3668,155.4
106.3858,343.2
106.4245,425.7
106.4648,95
106.4956,166.3
106.5183,140.9
106.5348,269.4
106.5416,142.1
106.5967,557
106.6326,669.5
106.6445,543.9
106.663,656.5
106.6715,16
106.6944,867.4
106.7011,133.1
106.72,20.9
106.7532,396.6
106.8367,122.6
106.8785,678.1
106.9094,136.4
106.9139,175.7
106.915,79.4
106.9222,427.3
106.9435,25.2
106.9452,733.1
106.9504,3537
106.9635,127.9
106.9678,92.7
106.9826,108.9
106.9917,87.5
106.9947,16.3
107.0281,40.7
107.0395,670.9
107.0489,768.6
107.0723,535.6
107.0854,35.5
107.1169,85.2
107.1286,104.8
107.1387,225.3
107.1577,78.6
107.1654,226.7
107.2617,870.4
107.2646,18.4
107.3089,389.3
107.3912,145.7
107.4455,123.4
107.4517,299.6
107.4765,203.5
107.493,656.5
107.5293,91.1
107.5687,88.9
107.6106,1090.7
107.6405,323.3
107.654,150.7
107.6716,219.4
107.7193,180.9
107.7632,97
107.7994,124.6
107.8067,269.1
107.8491,598.1
107.8964,24.4
107.9079,550.7
107.9714,21.7
107.9786,695.3
107.9916,854.7
108.03,200.5
108.057,33.5
108.0598,935.2
108.0723,293
108.0883,359.8
108.1608,204.8
108.1736,95.9
108.201,461.6
108.2182,225.4
108.2457,21.1
108.2541,418.9
108.2831,298.8
108.3677,93.9
108.4742,87.4
108.4756,118.7
108.4851,398.1
108.4872,533.8
108.5414,1015
108.5709,311.1
108.5961,439.5
108.6077,119.6
108.6838,943.2
108.7101,82
108.7467,180.9
108.7918,714
108.8138,208.6
108.8263,98.2
108.8508,575.3
108.8815,197.5
108.8971,874.8
108.9581,85.8
108.9598,86
108.9803,180.1
108.9918,97.4
108.999,333.8
109.0157,146.2
109.0646,69804.9
109.0663,54.5
109.0897,277.1
109.0913,762.6
109.0948,359.8
109.101,149.7
109.12,882.7
109.123,194
109.1514,329.6
109.176,181.8
109.2269,424.7
109.2649,219.1
109.268,136.7
109.3061,845.4
109.3189,413.4
109.3308,185.2
109.3637,108.3
109.4045,103.5
109.4477,96.5
109.452,195.6
109.4728,116.5
109.475,247.1
109.4911,19.2
109.5016,778.7
109.5253,87.3
109.6181,587.4
109.6198,87.4
109.625,263.9
109.6419,58.1
109.6444,17.6
109.6828,113.1
109.6862,99.3
109.7438,228.6
109.7762,87.3
109.8252,355.3
109.8622,148.1
109.8723,15.9
109.8875,84.6
109.9058,922.8
109.9349,92.5
109.9419,94.9
109.9524,329.9
109.957,346.1
110.0166,222.6
110.0358,19.7
110.0468,165.7
110.0604,138.9
110.068,2751.9
110.0709,2854.3
110.0801,190
110.0909,588.9
110.0916,992.6
110.1398,93
110.1526,581.5
110.1601,17.3
110.1731,88.6
110.1947,302.8
110.2184,251.4
110.2417,637.2
110.2758,86.4
110.2786,539.1
110.2809,707.4
110.3851,571.7
110.4046,17.8
110.4263,440.3
110.4402,635.9
110.4598,149
110.4744,64.3
110.5057,105.3
110.5087,17.9
110.5374,124.2
110.5485,911.1
110.5607,20.4
110.6288,631.8
110.6437,749.1
110.7116,743.7
110.7163,225.8
110.7576,615
110.7821,218.6
110.9238,116.2
110.942,193.9
110.9465,552.9
110.9531,75.4
111.0231,352.5
111.0419,82
111.0439,209.2
111.0474,17.9
111.0804,24.8
111.0862,22.2
111.1097,161.3
111.121,987.1
111.1897,336.4
111.2027,418.1
111.2208,275.6
111.225,119.9
111.2648,543.1
111.2897,540.1
111.3499,96.8
111.3804,87.4
111.4935,175.4
111.5031,168.7
111.51,137.1
111.5453,426.6
111.5568,309.4
111.5695,188
111.581,367.2
111.5939,360.1
111.6551,95.3
111.7734,129.2
111.8116,136.1
111.8161,136
111.8228,96.3
111.9255,139
111.952,82.1
111.9845,19.8
111.9992,321.9
112.0035,98.5
112.007,883.3
112.0274,111.4
112.0614,157.9
112.072,474.2
112.1211,141.8
112.1468,270.1
112.1496,125.7
112.1556,114.3
112.2053,553.7
112.2092,94.9
112.2328,365.3
112.2671,139.9
112.2914,628.9
112.295,473.1
112.3973,195.2
112.4047,147
112.4944,178.2
112.5151,356.9
112.5597,165
112.7483,148.7
112.7777,60.5
112.8023,361.5
112.8429,186.1
112.8935,512.8
112.8956,389318.9
112.9085,539.5
112.9413,453.2
112.9892,22.6
113.04,368.5
113.0877,1031.6
113.0968,854
113.1072,811.7
113.1992,91
113.204,132.1
113.2261,367.9
113.2304,266.4
113.2485,266.9
113.2778,691.4
113.2844,108
113.324,267.8
113.37,362.9
113.427,541
113.4344,734.4
113.4697,19.2
113.4717,156.4
113.4843,19.1
113.4922,70.4
113.5635,92
113.5733,172.9
113.5948,295.1
113.6314,309
113.6629,175.1
113.6902,17.7
113.6934,96.1
113.7031,515.2
113.7328,23
113.7594,529.9
113.8054,744.4
113.8383,108.1
113.8484,400.5
113.9296,384.2
113.942,113.5
113.9767,22
113.9952,143.9
114.0447,567.1
114.0548,36217
114.0938,86.4
114.1096,427.2
114.1192,16.3
114.1758,304
114.1802,63.5
114.2083,85.2
114.268,653.2
114.3026,336.1
114.3039,20
114.315,262.3
114.3457,727.7
114.4192,380.1
114.438,171.9
114.454,381.9
114.4572,382
114.46,891
114.4641,437.2
114.5184,20.6
114.5319,402
114.5915,114
114.6059,239.4
114.6074,393.3
114.6604,406.6
114.7446,137.8
114.7482,153.9
114.818,214.6
114.8205,108.7
114.8306,124.7
114.843,1196
114.8459,134.1
114.8562,336.7
114.8613,415.2
114.8657,367.2
114.8747,18.7
114.8927,119730.9
114.8936,53066.8
114.8952,181.1
114.8989,83.2
114.901,730.3
114.9307,362.1
114.9481,635.4
114.9561,156
114.9572,83.5
114.995,224
115.0086,167.8
115.0514,359.1
115.0582,385.3
115.0735,98.7
115.0955,323.4
115.1145,282.3
115.1239,192.4
115.1345,618
115.1668,718
115.171,814
115.1794,339.1
115.199,793.4
115.2087,127.7
115.2268,86.7
115.306,97.7
115.3603,573.4
115.4065,466.8
115.4273,244.7
115.5213,1150.8
115.5805,15
115.5965,235.7
115.5979,713.3
115.6162,461.6
115.6633,184.6
115.6655,196.8
115.7006,75.5
115.7217,91.7
115.769,196.7
115.7708,19
115.8305,507.8
115.8871,217.8
115.8928,94
115.9055,74.1
115.9482,24
115.9792,602.4
115.9893,18.3
116.0424,292.7
116.0704,4598.9
116.0781,224.9
116.0988,432.2
116.1097,225.6
116.1337,94.4
116.1604,297.1
116.2072,233.2
116.2086,124.7
116.2104,129.9
116.2359,555.9
116.2895,474.2
116.2924,163
116.3442,427.1
116.3573,93.8
116.362,112.7
116.3738,19
116.4251,906.4
116.44,135.7
116.4721,16.4
116.4869,611.9
116.5142,119.5
116.5678,149.7
116.5755,503.1
116.636,147.8
116.6791,287.2
116.7044,195.1
116.7246,509.2
116.7452,561.2
116.7503,142.5
116.7842,162.9
116.8077,499.5
116.8723,415.5
116.8748,689.4
116.8908,10913.5
116.8948,330.8
116.918,434.9
116.9632,107
116.9817,160.9
116.9858,1912.9
116.9993,169.6
117.0268,368.6
117.0599,152.4
117.0948,176.5
117.1524,153.6
117.1825,1026.2
117.2179,132.2
117.2682,15.9
117.2792,379.8
117.3164,132.2
117.3255,391.6
117.3587,235.2
117.3949,90.5
117.4354,105.4
117.4773,1087.7
117.4957,372.5
117.5033,1185.9
117.5185,307.3
117.5283,155.5
117.5613,169.7
117.5794,156.9
117.6738,86.9
117.6815,158.3
117.6928,136
117.7412,205.2
117.7599,255.2
117.8343,155.7
117.8356,154.5
117.8528,195.8
117.8676,99.4
117.8943,131.1
117.9097,18.7
117.9251,17.4
117.9719,203.6
118.0182,110.1
118.0543,174.3
118.0729,643.9
118.0802,310.1
118.1729,98.4
118.1915,205.2
118.1984,497.5
118.2179,136.6
118.2559,97.4
118.2629,136.1
118.3193,168.3
118.3376,333.7
118.3783,555.9
118.3847,57.1
118.3865,251.8
118.4459,474.7
118.4792,241.6
118.4974,86.8
118.5307,96.1
118.545,91.6
118.59,542.2
118.6782,668.1
118.7776,427.3
118.8057,103.9
118.8682,871
118.8938,447.3
118.9139,167.3
118.9178,225
118.9321,522.9
118.9424,750.2
118.9546,97.9
118.9634,45.8
118.9649,410
118.9789,881.1
119.0281,141.7
119.0398,343.2
119.0661,17.3
119.0693,751.7
119.0994,414.3
119.1098,378.3
119.1116,557.8
119.1138,213.4
119.151,392.1
119.1657,279.8
119.2049,359.4
119.2216,84.5
119.2791,357.3
119.3126,166.8
119.3514,209.3
119.353,384.1
119.3852,18.1
119.3916,81.9
119.3998,348.4
119.4055,976.7
119.4675,299.7
119.4769,91.4
119.5181,731.6
119.5383,415
119.54,220.5
119.6028,195.1
119.654,822.3
119.6854,411.5
119.6984,265.8
119.7109,54.8
119.7162,675.6
119.7261,104.7
119.7511,18
119.782,17.2
119.8573,119
119.863,344.2
119.8945,142.9
119.9033,465.6
119.9249,164.4
119.9808,696.5
120,248.2
120.0031,3819
120.0389,699.4
120.0806,13971.7
120.0951,125.2
120.101,162.5
120.1706,602.7
120.2037,477.7
120.2279,81.2
120.2555,18.5
120.2806,707.5
120.3004,99.7
120.316,61.4
120.3626,18.7
120.4013,188.8
120.4329,68.3
120.4372,492.2
120.4438,394.8
120.452,79
120.535,193.3
120.6083,443.3
120.7145,431.3
120.8316,101.7
120.8448,16.8
120.8623,20.3
120.898,17.9
120.9116,874.5
120.9182,1098
120.9303,537
120.9698,543.7
120.9791,172.4
120.9807,110.1
120.9896,368.3
120.9944,790.5
120.9977,196.5
121.0075,285.4
121.0283,634.9
121.0395,44.6
121.0495,874.7
121.0638,1098.4
121.0648,37.6
121.0823,391.9
121.1011,133.6
121.1337,116.7
121.1406,92.4
121.1623,898
121.197,227
121.2998,18.8
121.4393,139.6
121.4687,814.2
121.4932,86.2
121.5101,754.9
121.5188,82.1
121.5576,80.5
121.5897,558.3
121.6054,180.3
121.6081,306.6
121.6096,653.3
121.6502,144.6
121.6831,120.5
121.7366,406.9
121.7866,18.1
121.829,78.4
121.85,522.8
121.8948,141.8
121.9167,18.9
121.9899,110.4
121.9981,301.1
122.0029,20.8
122.0324,728.7
122.1111,103.8
122.1279,346.7
122.1307,333.9
122.1418,95.1
122.2072,198.5
122.2707,204.1
122.2807,768.1
122.3075,392.5
122.3627,288.9
122.3663,959.6
122.3921,116
122.4104,268.8
122.4217,514.4
122.4937,163.5
122.5577,915.1
122.5858,19.3
122.62,713.2
122.6374,670.1
122.6495,91.7
122.7102,481.4
122.7236,507.3
122.7263,645.1
122.7914,539.3
122.8665,959.9
122.9244,13708.3
122.9292,61
122.9738,230.3
123.0173,510.1
123.0779,220.1
123.0803,35.9
123.0876,188.5
123.0917,96.8
123.1165,144.8
123.1868,230.3
123.2161,704.8
123.2308,151.5
123.2616,104.9
123.2669,741.2
123.2746,97.4
123.3397,18.9
123.3703,172.3
123.406,207.2
123.4114,428.8
123.4282,906.1
123.4326,440
123.4419,18.3
123.4482,413.4
123.4946,407.2
123.507,191.6
123.5614,228.1
123.5699,419.4
123.5718,93
123.5944,81.8
123.602,75.1
123.6249,555.6
123.6295,670.1
123.6378,425.6
123.7008,531.1
123.7024,91.7
123.7496,394.8
123.7586,17.9
123.7606,280.9
123.8013,957.1
123.8224,294.9
123.8787,83.4
123.9024,93.9
123.9853,89.2
123.9958,147.4
124.0069,121.9
124.0144,222
124.1206,187.8
124.1282,960
124.151,374.3
124.1663,156.4
124.1729,91.5
124.1959,162.2
124.2111,19.3
124.2361,22.2
124.2424,708.1
124.2503,360.1
124.2892,147.2
124.2942,432.4
124.3233,80.7
124.3482,94.2
124.3929,257.2
124.4054,667.4
124.4111,532.5
124.4401,18.2
124.4999,20.9
124.5316,970.4
124.5336,767.2
124.5402,959.7
124.5454,166.3
124.5626,313.2
124.5744,166.9
124.6243,303.1
124.6303,267.8
124.6753,606.2
124.6784,387.6
124.6913,115.2
124.7368,371.3
124.894,336
124.9226,858.6
124.936,143.2
124.9439,323.7
124.9592,214.3
124.9863,106.5
124.9997,3847
125.0055,1078.8
125.0153,1278.6
125.0387,183.5
125.0596,29.8
125.099,358.5
125.1215,18.7
125.1648,194.4
125.1852,831.8
125.2039,164.9
125.2806,99.4
125.3483,421.8
125.4438,99.7
125.447,21.3
125.4488,65.2
125.4812,590.5
125.5337,18.2
125.5575,855.5
125.5839,680.9
125.6209,19.7
125.6519,273.9
125.6916,20.1
125.7043,101.3
125.7063,335.9
125.748,415.1
125.7687,118.1
125.7773,85.4
125.8066,753.3
125.8334,130.2
125.8512,146.7
125.8779,588.1
125.9333,192.9
125.9519,417.8
125.9846,555.6
125.9999,108.3
126.0068,140
126.067,392.6
126.1791,224.3
126.1843,182.6
126.1923,106.7
126.2137,512
126.2418,565.9
126.2579,114.9
126.2766,527.4
126.369,106.7
126.3718,548.4
126.3869,181.8
126.4872,105.9
126.498,333.7
126.508,93.7
126.5364,402.9
126.5413,445.2
126.5439,591.4
126.5923,152.2
126.5971,17.9
126.6496,162.4
126.6585,653.2
126.6992,122.6
126.7197,411.1
126.7525,196
126.7601,91.5
126.795,84.9
126.8156,24.4
126.8856,733.4
126.9073,490.8
126.9087,110.8
126.9476,336.4
126.9501,21.4
126.9817,185.1
127.0013,18.4
127.0286,96.5
127.0324,624.8
127.0383,718.8
127.0477,228.3
127.1091,365.7
127.1127,88.9
127.1893,256.6
127.1907,158.7
127.2246,442.4
127.23,186
127.2333,347.9
127.2699,370
127.2936,89.1
127.2991,374.8
127.3098,178.5
127.4275,84.3
127.435,79.4
127.4688,220.6
127.4786,520.2
127.5068,162.8
127.5852,185.3
127.608,168.4
127.6377,670.5
127.6587,161.6
127.6914,369.1
127.7094,381.5
127.7508,138.2
127.7764,540.8
127.7807,58.5
127.8104,101.8
127.8366,90.7
127.8616,346.5
127.8645,206.1
127.9082,80.4
127.9154,324.6
127.9236,165.9
127.9298,310.7
127.9822,775.5
127.9833,169
127.997,512.7
128.0154,24.6
128.0217,508.6
128.0231,527.6
128.0244,149.5
128.0627,624.1
128.1016,725.4
128.1469,149.6
128.3292,379.6
128.3719,169.1
128.3987,201.3
128.4024,231
128.4209,189
128.4957,383.5
128.5285,314.6
128.5498,414.9
128.6502,139.6
128.7227,387.2
128.7311,394.3
128.7623,141.2
128.8573,476.4
128.8613,607.5
128.8792,98
128.912,157.2
128.9357,772.6
128.9637,529.7
129.0217,102.8
129.0295,599.9
129.1021,2283.1
129.1294,130.3
129.1312,519.6
129.1425,233
129.1518,691.7
129.1596,18.2
129.2154,18.8
129.3337,16.5
129.3972,81.1
129.4047,132.9
129.4506,109.4
129.4712,765.2
129.5375,130.9
129.5388,506
129.5419,376.6
129.5624,270
129.6449,276.3
129.7138,392.8
129.718,261.7
129.7198,206.4
129.7588,933.7
129.8453,419.8
129.8674,308.2
129.9018,149.7
129.9219,706.5
129.9262,338.7
129.9585,177.7
129.9636,29.8
129.9949,131.9
130.0145,636.9
130.0478,112.4
130.0498,9215.3
130.072,147.4
130.0804,170.2
130.0861,1546.5
130.1472,94.1
130.1518,863.8
130.1907,139.3
130.2626,454.5
130.303,126.9
130.3156,516.9
130.3954,840.2
130.3999,878.6
130.4298,182.2
130.4479,79.5
130.4635,785.9
130.508,82
130.5136,482.7
130.5363,549.4
130.5655,278.2
130.642,175.4
130.666,212.7
130.7428,164.7
130.7664,101.6
130.7694,201.8
130.8487,124.1
130.8818,184.9
130.9115,658.6
130.9126,223.9
130.933,741.1
130.942,172.4
130.9628,23.5
130.9695,104.6
130.9797,148.2
130.9998,1152
131.0251,23.9
131.0706,368.9
131.0774,81.1
131.1208,118.7
131.1515,193.4
131.1706,901.3
131.1896,164.4
131.2223,144.6
131.2288,627.6
131.2979,442.7
131.3716,112.8
131.3819,20
131.4141,256.2
131.4437,611.5
131.6361,68.6
131.6477,167.8
131.6612,244.9
131.704,837.5
131.7409,154.2
131.7497,171.9
131.7803,23
131.7834,345.2
131.8642,397.2
131.8701,208.1
131.8735,81
131.8783,78.9
131.8936,929.8
131.9085,17.9
131.9279,75.8
131.9526,427.4
131.9594,379.7
131.9613,314.8
131.9817,499.7
132.0031,34580.3
132.0182,103.8
132.0548,186.7
132.0654,66462.4
132.0714,618.9
132.0766,4361.8
132.0846,483.1
132.0934,188.2
132.1017,324.3
132.1315,21.5
132.1711,75.1
132.1878,673.5
132.1934,22
132.1955,422.3
132.2306,175.4
132.2378,401.9
132.2602,95.4
132.3017,399.2
132.3177,17.2
132.3489,189
132.357,268.2
132.4289,21.3
132.5056,193.5
132.5139,88.7
132.6026,95.2
132.6403,136.6
132.6554,1259
132.6589,135
132.6945,663.6
132.7607,437.8
132.7697,609.7
132.7775,747.7
132.8789,519.6
132.9177,254.8
132.9394,234.5
132.9581,720.2
132.9693,68.6
132.9776,126.2
132.9802,19.3
132.9872,2656.6
132.9953,24.5
133.0008,1101.3
133.0064,158.1
133.0077,125.9
133.031,642.6
133.0659,263.7
133.0687,1133.3
133.0747,53.3
133.0857,21.3
133.097,22860
133.133,22.4
133.1417,300.8
133.1512,90.7
133.1748,907.4
133.2027,977.4
133.2565,503.2
133.2845,133.2
133.2857,881
133.3584,99.7
133.3688,418.6
133.4759,490.5
133.4845,138.7
133.4994,138.1
133.5481,232.8
133.6974,1075.3
133.7223,467.8
133.7668,102.9
133.8428,275.4
133.9163,210.3
133.9307,437
133.9525,569.5
133.9696,540.9
133.9813,21.3
133.9948,679.5
133.998,68.3
134.0098,688
134.0188,12382.5
134.0215,205.2
134.0343,889.5
134.0395,327
134.1741,185
134.2553,791.5
134.4216,327.9
134.5754,18
134.5827,169.8
134.6672,195.8
134.6828,116.1
134.6951,20.8
134.7752,128.2
134.7906,123
134.8441,722.5
134.8681,342.7
134.8796,168.5
134.9074,56
134.9247,111.6
134.9702,994.5
134.9737,47
134.9794,232.7
134.9854,21.8
134.989,170.4
134.9963,25.4
134.9974,123.4
135.0028,88183.8
135.0421,151
135.0815,179
135.107,779.6
135.1167,22.6
135.1509,90.3
135.1975,500.3
135.223,405.1
135.2423,216.7
135.2499,346.9
135.2684,18.6
135.306,115.4
135.4397,296.1
135.4516,282.8
135.5273,882.6
135.5941,19.1
135.6429,712.3
135.6607,514.9
135.6753,213
135.6845,557.4
135.6928,704.2
135.7429,87
135.7593,95.4
135.8105,643.1
135.8448,531.3
135.9741,182.9
135.977,2091.9
136.0061,1032.9
136.0088,83.9
136.0133,191.4
136.048,8262.1
136.055,21
136.0756,9907.5
136.1284,58.4
136.2077,172
136.2136,160.2
136.2169,92.6
136.2337,374.7
136.2923,172.9
136.3076,151.7
136.3406,84.1
136.343,18.1
136.3641,63.1
136.3659,106.8
136.3824,395.8
136.3933,785
136.4908,399
136.4944,344.4
136.4971,86.5
136.5023,660.6
136.6247,416.6
136.6468,97
136.6635,18.4
136.7537,130.5
136.774,148.6
136.7953,98.7
136.8238,221.4
136.8484,103.9
136.9067,382.7
136.953,149.6
136.9573,171.2
136.9615,105.1
136.9653,582.2
136.9857,126.3
136.9894,92.4
136.9934,84.8
137.0299,93.6
137.0589,197.8
137.0963,24.6
137.1053,93.4
137.1444,322.6
137.157,155.4
137.1634,100.1
137.1796,17.4
137.1859,87.8
137.226,323.2
137.2308,383.8
137.247,430.3
137.2487,408.8
137.3014,672.2
137.3232,316.2
137.3282,20.7
137.3427,260.5
137.3513,172.4
137.3655,109.5
137.4494,587.3
137.5703,299.1
137.6998,231.1
137.8146,124.3
137.822,359.7
137.9268,1050.6
137.9999,373.7
138.0138,229.6
138.0524,5660.1
138.0662,41.6
138.0756,1337.6
138.1625,427
138.2157,434.2
138.2179,726.4
138.3504,219.8
138.3541,395.9
138.3691,592.5
138.4118,120.2
138.4145,146
138.4626,428.7
138.4713,175.8
138.4872,282.2
138.5689,637
138.6685,583.7
138.6977,339.7
138.7159,279.2
138.7692,118.6
138.9064,2190.6
138.9099,359.2
138.9578,100.8
139.124,674
139.1445,21.1
139.1881,274.6
139.2322,246.5
139.2794,367
139.3941,146.6
139.3977,150
139.49,58.2
139.5652,582.5
139.58,374.4
139.5879,128.5
139.6292,181.5
139.6851,528.4
139.7589,387.7
139.7629,20.6
139.7926,223.6
139.8904,139.3
139.8972,678.4
139.9182,439.2
139.9223,67.6
140.0164,3803.9
140.0618,95.6
140.0681,6514.3
140.2301,913.5
140.2369,124.2
140.2447,217
140.2479,142
140.2632,156.6
140.3691,106.3
140.4189,660.8
140.4268,563.2
140.5374,141.3
140.5647,450.1
140.5798,19.4
140.6419,104
140.6492,361.4
140.782,701.4
140.8473,227.3
140.9035,573.7
140.9801,20.7
140.9843,228.3
141.0004,17226.8
141.0199,251.8
141.058,269.4
141.0717,158.1
141.0979,324.5
141.3419,101.3
141.4391,22
141.446,941.8
141.4787,88
141.5288,737.4
141.5368,527.5
141.5442,905.8
141.5673,311.1
141.6049,512
141.6641,107.9
141.7444,176.5
141.7489,187.3
141.7773,17.7
141.7801,294.9
141.8424,207.7
141.8464,202.6
141.848,120.2
141.8828,210.3
141.9349,924.7
141.9949,142.9
142.0038,554.4
142.0069,18.3
142.0122,30.2
142.0396,1211.6
142.0569,172.9
142.063,926.5
142.0909,18.5
142.1253,18
142.1477,20.7
142.1593,325.4
142.1653,141.1
142.168,457.3
142.2929,20.6
142.3052,146.3
142.334,209.5
142.3555,121.4
142.3698,356.1
142.4005,116.3
142.4658,354.4
142.4837,507.5
142.4871,565.6
142.5119,598.8
142.5875,133.8
142.6527,156.6
142.9609,736
142.9645,735.1
142.972,271.8
142.9854,171.6
142.9962,260.7
143.0038,648.1
143.0113,587.9
143.018,446.5
143.0276,666.8
143.0629,126.1
143.0728,695.3
143.0815,55.6
143.1633,388.3
143.2486,419.4
143.2657,353.9
143.3824,117.7
143.4496,108.8
143.4785,91.9
143.5237,412.4
143.5348,163.1
143.5405,796.3
143.5506,355.1
143.6011,218.9
143.6016,253.7
143.6028,174.7
143.6062,406
143.6275,282.1
143.6501,799.6
143.7662,726.3
143.802,181.8
143.8691,318.9
143.9337,158.5
143.9392,63.3
143.9618,60.8
143.9926,497
143.9956,19.6
144.0035,143.3
144.0105,946.8
144.0341,769.1
144.08,193.1
144.0887,846.8
144.1031,150.6
144.1329,412.5
144.1387,17.8
144.1815,516.8
144.187,152.6
144.3199,143.9
144.3351,163.2
144.4033,480.3
144.415,120.4
144.4167,1062.6
144.4346,396.9
144.4414,175.4
144.4718,199.6
144.5047,20.7
144.5585,388.1
144.5751,431.1
144.5864,18.7
144.6127,93.3
144.7169,203.5
144.7713,84
144.7835,610
144.8223,148.8
144.8275,363.6
144.8741,266.8
144.8796,20.6
144.8954,112.4
144.9805,774.7
144.9944,33
145.0114,99.1
145.0782,223.9
145.0811,92.8
145.0879,692.2
145.0894,184.4
145.1055,129.5
145.1099,603.2
145.1344,1071.6
145.1416,599.6
145.1898,90.8
145.2311,732.3
145.2845,169.9
145.3087,133.4
145.3223,114.2
145.3248,295.7
145.357,103.4
145.3669,187.1
145.3884,247.9
145.4159,113.6
145.4532,199.9
145.5328,100.7
145.5341,853.7
145.574,19.6
145.5959,79.7
145.6263,553.4
145.6294,155.9
145.6495,375.8
145.7096,605.6
145.7117,102.9
145.7269,714.2
145.7652,197.2
145.7821,19
145.7932,346.7
145.7953,154.8
145.8763,18.5
145.9362,120.6
145.9665,108.9
145.9707,668.8
145.9945,365.3
145.9979,154.8
146.0008,499.8
146.0104,418.4
146.0124,2811
146.0188,19530.1
146.0263,110.5
146.1072,563.1
146.1568,191.4
146.1618,171.9
146.1755,174.9
146.1843,402.6
146.2528,192.9
146.2699,84.5
146.291,731.6
146.3007,326.2
146.3494,251.2
146.3856,185.7
146.4616,263.6
146.4963,183.9
146.5033,868.5
146.5141,99.4
146.5573,937.6
146.5774,123.7
146.6291,615.3
146.6487,23.5
146.6534,196.4
146.6567,624.6
146.665,312.4
146.6733,128.3
146.678,534.4
146.7679,145
146.7712,482.8
146.8388,152.6
146.9167,647.8
146.9238,162.6
146.9731,107.4
146.9743,92
146.9817,124824
146.9871,326.9
146.9986,632.3
147.0043,221.6
147.0215,197.1
147.0642,317.9
147.0763,67254.9
147.1127,36051.1
147.1154,305
147.1167,451.2
147.1762,220.2
147.1938,202.8
147.2454,701.2
147.2659,176.2
147.3551,286.9
147.3927,174
147.3971,131.8
147.4389,395.8
147.46,368.3
147.5309,176.8
147.5581,139.7
147.5862,125.5
147.6206,207.9
147.6248,285.5
147.6555,692.6
147.675,396.3
147.6768,19.5
147.6801,575.3
147.726,285.9
147.7305,261.5
147.7354,440
147.7886,520.5
147.8353,123.6
147.8392,343.9
147.8586,139.3
147.9714,838.7
148.0032,529.4
148.0111,195.6
148.0332,67.2
148.0871,717.8
148.0989,259
148.1124,159.6
148.1343,154
148.156,75
148.1593,152.7
148.166,579.8
148.1818,87.1
148.2067,156.8
148.2356,95
148.2376,385.1
148.2476,105.4
148.279,88.9
148.303,510.8
148.3062,124.4
148.3615,102.9
148.3792,18.5
148.3928,582.6
148.4206,315.5
148.4267,307.8
148.4405,803.1
148.4938,422.4
148.5321,2120.4
148.5394,395.3
148.5749,337.7
148.6194,16.1
148.692,21.1
148.8429,110.2
148.8529,252.4
148.9083,357.6
148.9353,589.9
148.9578,726.2
148.9612,1652.5
148.9887,84.3
149.0112,502.9
149.0185,4153.4
149.0232,5011.9
149.0449,23.3
149.0846,324.7
149.0999,240.1
149.1039,101.4
149.1071,92.7
149.1341,512.9
149.1652,327
149.1919,273.7
149.2636,233.4
149.4356,967.2
149.4431,628
149.5331,104
149.6963,726.7
149.7596,593.6
149.7755,58.9
149.791,411.9
149.8166,383
149.8348,178.8
149.8825,170.7
149.9484,176.6
149.9873,58.6
149.9927,10324.1
149.9991,641.2
150.0137,4543
150.024,438.6
150.0266,29.1
150.0303,179.7
150.0661,376.1
150.0695,479.7
150.1015,101
150.1296,19.3
150.2037,161.5
150.2458,811
150.3567,132.1
150.3689,287.4
150.3831,214.5
150.4025,22.7
150.4211,17.5
150.5518,155.6
150.6067,25.1
150.6223,97.4
150.6292,308.8
150.6769,356.2
150.6893,104.1
150.6949,155.5
150.7837,168.7
150.7919,144.7
150.8121,233.8
150.8308,19.7
150.847,23.2
150.8616,358.5
150.8648,150.3
150.9215,229.3
150.9598,222.9
150.9686,28.8
150.9768,51309.7
150.9841,4465.9
150.9936,604.1
151.0061,94.5
151.0476,3157.1
151.0635,999.9
151.0709,653.8
151.1236,345.6
151.1349,16.6
151.2203,82
151.241,789.6
151.5093,662.3
151.5431,288.1
151.564,604.7
151.6345,154.3
151.7306,741.5
151.7374,103.8
151.7465,15.8
151.7749,156.8
151.7886,99.3
151.796,546.3
151.9111,17.7
151.928,69.9
151.9337,77.9
151.9514,457.3
151.9845,50.5
151.9874,127.9
152.0221,9661.8
152.0318,4761.8
152.0788,157.6
152.1112,82.5
152.1302,667.4
152.1635,296.7
152.2136,521.4
152.2402,559.2
152.265,123.8
152.2816,16.7
152.3529,591.5
152.4094,879
152.4283,86
152.4781,155.1
152.497,196.7
152.5246,139
152.53,362.3
152.5452,388.1
152.5843,96.7
152.6068,66.3
152.6093,599.3
152.6588,19.1
152.8024,911.3
152.868,18.8
152.9,141.7
152.9452,357.1
152.9749,3155.7
153.004,273.4
153.027,86.8
153.0858,485.7
153.1068,206.4
153.1363,25.4
153.1489,324.5
153.1771,605.5
153.2585,879.7
153.2938,159
153.3074,113.8
153.3148,189.7
153.3481,547.3
153.393,527.9
153.3952,341.7
153.4526,398.1
153.4613,126
153.5951,406.4
153.612,167.5
153.6164,19.2
153.6231,180.5
153.6537,606.7
153.7076,823.9
153.7186,399.5
153.7433,586.6
153.8195,244.6
153.842,558.7
153.8583,362
153.8858,441.3
153.899,504
153.9221,21.7
153.9332,85.4
153.9412,176.7
153.9632,146.5
153.9807,385.3
153.9951,739.9
154.0082,335.1
154.0111,248.9
154.0176,337.4
154.0264,835.9
154.0586,3823.7
154.1527,163.8
154.2144,555.8
154.2381,80.6
154.2654,126.1
154.2957,258.2
154.2979,693.2
154.3187,250.3
154.3204,370.6
154.3678,334.2
154.3872,73
154.3979,94.6
154.4556,337
154.4561,337.1
154.46,86.1
154.4647,120.3
154.4744,225.2
154.5137,721.7
154.5848,111.7
154.5915,376.8
154.5964,820.5
154.6106,19.1
154.6157,120.2
154.6373,180.8
154.6433,256.2
154.7686,95.7
154.7881,404.9
154.799,242
154.819,798.2
154.8238,720.8
154.8497,167.6
154.8593,431.6
154.8698,309.5
154.8954,18.5
154.8976,471.7
154.9019,138.4
154.9074,101.8
154.9301,160.2
154.9419,923.7
154.9691,412.9
154.9832,82.9
155.0272,18.4
155.0426,2393.8
155.0463,109
155.049,154.8
155.0539,3726.7
155.0562,368.6
155.0823,205.5
155.0879,89.5
155.1006,392.8
155.1353,166.4
155.183,351.7
155.1887,709.1
155.2284,223.9
155.3654,363.2
155.405,90.7
155.4162,87.1
155.4313,76.8
155.4404,708.8
155.4528,141.5
155.4709,96.8
155.5304,679.7
155.5902,306.7
155.6732,459.6
155.8581,1107
155.9615,148.9
156.011,21.3
156.0135,179.4
156.0421,6829.6
156.0731,155.8
156.0767,60532.7
156.1929,265.2
156.2032,91.7
156.2119,143.8
156.2306,560.1
156.3419,19.2
156.3925,344.7
156.5826,162.6
156.6144,130.5
156.6216,1065.4
156.6518,16.3
156.6535,432.7
156.7166,93.1
156.7198,112
156.7321,555
156.8188,662.5
156.822,117
156.8448,189.4
156.8774,370.5
156.9076,159.1
156.9211,177.3
156.9346,803.7
156.9643,20.1
157.0059,22.8
157.0102,376.8
157.0155,771.8
157.0312,20.4
157.0348,378.4
157.0452,610.7
157.0646,573.5
157.0796,1263.9
157.0973,23.5
157.1006,393.4
157.1212,644.8
157.1276,68.1
157.14,521.7
157.2513,122.7
157.2663,674.5
157.2929,18.2
157.3135,703.8
157.4392,620.6
157.4559,413.1
157.5118,610.5
157.5269,114.3
157.5353,559.1
157.5411,186.4
157.5628,771.5
157.6022,141.8
157.6048,770.1
157.634,18.3
157.6492,20.2
157.6752,141.5
157.6808,168.7
157.7242,472.8
157.79,171.9
157.825,218
157.8775,780.5
157.9117,374.1
157.959,153
158.0056,23.6
158.027,5351.9
158.035,575
158.1383,97.4
158.1403,191.7
158.1412,170.7
158.1934,18.9
158.2328,140.6
158.2521,146.7
158.2841,150.7
158.3065,192.8
158.3383,189.8
158.3649,556.3
158.4124,129.7
158.4292,248.8
158.5271,123.1
158.5481,324.7
158.5615,775.3
158.593,225.1
158.6163,84.5
158.6563,1030.3
158.6758,137.4
158.6832,379.6
158.7332,618.5
158.762,151.4
158.7914,198.1
158.8675,112
158.9121,548.6
158.964,7178.3
158.9779,132.4
158.9945,635.5
158.9964,8723.6
159.0101,28.7
159.0171,80.8
159.0302,56.2
159.0762,185.8
159.0842,665.5
159.1779,805.7
159.193,98.3
159.2252,175.9
159.2393,20.4
159.2938,306.1
159.3194,352
159.3349,346.8
159.3661,347.5
159.3685,105.4
159.4547,338.9
159.4985,139.1
159.5291,170.9
159.5369,124
159.592,563.7
159.6011,159
159.6058,162.1
159.7725,238.4
159.7919,102.8
159.8166,166.8
159.8346,437.9
159.8826,90.7
159.8939,486.4
159.9623,182
159.9931,267.1
160.0137,192.8
160.0228,102.3
160.0345,13289.4
160.0418,21.1
160.0604,62346.4
160.0837,17.5
160.1011,401.3
160.1445,239.6
160.1569,59.5
160.3053,104.2
160.3105,108.4
160.3252,458.8
160.4813,179.9
160.4966,79.8
160.5153,430.6
160.5572,307.8
160.5847,71.8
160.6353,84.4
160.6459,175.3
160.8291,84.8
160.9089,85.5
160.9644,25.4
160.9895,20.5
160.9922,138.6
161.0158,515.9
161.0242,94.2
161.0419,173.5
161.0484,432.8
161.0637,1417.5
161.0704,332.7
161.1239,789.2
161.1284,5055.8
161.1324,82.1
161.1832,106.7
161.201,124.4
161.2689,139
161.2782,858
161.3323,18.1
161.4224,849.3
161.4478,306.9
161.5335,127.5
161.5409,594
161.5886,157.5
161.613,227.5
161.6744,955
161.6868,523.7
161.6915,200.8
161.7497,110.6
161.7685,374.1
161.8144,437.7
161.8629,20.5
161.8718,714.9
161.9328,90
161.9473,170.9
161.9598,644.2
161.9698,100.9
162.0263,196.3
162.0501,11484.8
162.0641,92.6
162.0689,85.2
162.1125,608.7
162.1924,549.4
162.2405,854.2
162.2431,600.1
162.305,97.1
162.3358,174.3
162.3412,96
162.3433,92.4
162.4252,589.4
162.4475,146.9
162.6319,532
162.6481,176
162.6881,84.9
162.6921,1010
162.7321,81
162.7899,298.1
162.7944,163.1
162.8776,105.2
162.9237,228.5
162.9556,3472.4
163.0034,87.6
163.0154,1865
163.0251,197.1
163.0391,17.8
163.0606,27
163.0649,395.4
163.0955,159.6
163.1028,227.6
163.1049,126.7
163.1286,162.2
163.1312,507.7
163.1564,803.6
163.1646,287.1
163.2005,218.1
163.2693,117.5
163.3018,237.7
163.313,192.7
163.3198,238
163.4189,57.1
163.4737,287.6
163.4834,17.8
163.521,155.2
163.5312,792.4
163.534,219.6
163.5908,140
163.6691,233.4
163.6739,531.3
163.678,101.4
163.6805,291.6
163.685,1161.6
163.6884,254.4
163.6963,126.8
163.7169,179
163.8343,89.7
163.846,169.1
163.8746,140.6
163.9114,159.2
163.9994,52.3
164.0294,10742.3
164.0841,180.5
164.104,93.7
164.1154,274.4
164.1278,104.2
164.1641,18.5
164.1967,997.9
164.224,179.9
164.3275,131.8
164.3888,150.6
164.7206,331.9
164.7968,940.8
164.8034,393.9
164.8308,1317.9
164.8541,512.7
164.8817,90.1
164.9171,88.7
164.9205,3130.8
164.93,16110.2
164.935,3364.7
164.9844,65.3
164.9924,2711.3
164.9997,511.9
165.0449,272.6
165.1111,262.9
165.1278,18.2
165.1671,196.3
165.1908,1446.5
165.2247,298.1
165.2471,159.4
165.2541,255.7
165.2679,368.2
165.2835,16.4
165.3088,284.9
165.3738,776
165.4062,204.9
165.497,213.3
165.5192,305.7
165.5845,314.2
165.6083,96.6
165.6248,511.6
165.6951,150.8
165.7254,223.1
165.7276,171.4
165.7326,505.4
165.7344,250.3
165.7969,321.1
165.8588,104.2
165.8882,248.7
165.921,230.9
165.9546,641.1
165.9668,1515.6
165.9788,673.8
165.9877,3158.3
165.9949,2100.6
165.9988,298.6
166.0294,221.7
166.0839,4018.5
166.16,343
166.2428,705.7
166.2932,381.3
166.3353,432.6
166.3582,1069.7
166.3617,531.1
166.3839,105.6
166.4026,151.9
166.4049,179.8
166.4605,606.5
166.4665,244
166.4925,118.1
166.5051,20.3
166.6143,340.9
166.6243,227.4
166.6435,211.6
166.6591,179.3
166.6666,770.5
166.7086,248.6
166.7229,496.2
166.7459,132.3
166.7607,797.1
166.7669,102.2
166.7685,805.2
166.8774,185.6
166.9508,17703.4
166.9628,784.5
166.9887,667.3
166.998,37.8
167.0001,46.4
167.0217,7018.9
167.0395,81.9
167.0574,168.5
167.0785,115.4
167.2034,132.2
167.2215,118.8
167.2496,114.9
167.2847,411.2
167.375,124.5
167.377,101
167.3862,145.9
167.4004,366.7
167.4229,392.3
167.534,275.1
167.5469,390.3
167.5666,98.8
167.5675,97.5
167.6554,700.5
167.6736,233.6
167.739,96.4
167.7665,245.3
167.7777,747.7
167.7868,154.2
167.7974,137.8
167.809,376.9
167.8313,239.9
167.9041,457.8
167.9439,351.7
167.9459,215.3
167.9538,426
167.9882,145
167.9944,1605.2
168.0055,362.4
168.0257,1034.7
168.0748,124.8
168.0959,126.4
168.1468,168.9
168.1644,408.6
168.1838,177.3
168.1865,93.7
168.2152,168.3
168.2865,136
168.3274,713
168.3814,127.6
168.3999,402.6
168.4086,169.1
168.4352,202.5
168.5644,150.9
168.6656,709.6
168.7011,554.5
168.705,358.2
168.7399,19.4
168.7436,455.5
168.7544,18.3
168.7711,372.5
168.8442,164.5
168.868,260.9
168.9145,405.6
168.9205,21.7
168.9374,92.9
168.9489,2020.3
168.9573,791.9
169.0093,728.4
169.0225,80.9
169.0271,428.3
169.0294,483.9
169.0583,83009.2
169.0648,363.4
169.0946,3052.9
169.0974,787.1
169.1531,403.2
169.1643,265.5
169.1779,57.9
169.1896,173.8
169.1962,185.8
169.209,18
169.3022,733.4
169.3425,432.8
169.3858,138.9
169.4316,18.7
169.4944,182.5
169.506,579.5
169.5212,775.1
169.7217,61
169.7507,103.2
169.7758,275.2
169.7776,115.2
169.7905,190.7
169.8188,688.2
169.8428,140.1
169.8513,920.9
169.8777,124.4
169.9757,785.5
169.986,564
170.0326,6226.9
170.0617,899.6
170.0708,722.9
170.0724,188.9
170.0924,8154.1
170.1004,522.1
170.1523,598.6
170.1762,183.1
170.2462,328.4
170.2608,555.9
170.3451,576.7
170.3619,588.6
170.4683,169.3
170.48,86.9
170.4889,81.5
170.641,18.9
170.7106,17.1
170.7332,368.3
170.7907,887.8
170.8544,2933.6
170.8601,436.9
170.8884,720.1
170.9133,367.6
170.9171,19.8
170.9426,283.7
170.9787,523.5
170.9982,29
171.0165,225.1
171.0279,119.5
171.0443,193.2
171.0532,566.6
171.0988,706
171.1097,150.7
171.1305,411.9
171.1685,208.6
171.1926,20
171.2136,143.5
171.2317,321.1
171.2378,995.3
171.2556,685
171.281,151.2
171.3035,137.1
171.3124,329.4
171.3475,123.1
171.3752,211.1
171.4088,619.4
171.4169,378.5
171.5132,127.2
171.5816,333.3
171.6273,119.4
171.6716,76.7
171.7428,552.2
171.7558,163.5
171.8259,520.6
171.9042,148.5
171.9604,901.8
171.976,186.4
171.9996,128.3
172.0212,360.8
172.0285,240.4
172.0404,352
172.0833,84.8
172.105,1005.4
172.1228,149.3
172.1894,521.5
172.1943,725.5
172.2257,671.9
172.3321,112.5
172.4274,179.3
172.457,318.7
172.4855,63.2
172.5321,126.8
172.5337,126.4
172.5882,96.3
172.596,307.3
172.6184,80.4
172.7409,304.5
172.84,117
172.8514,961.6
172.8992,27.2
172.9701,142.1
172.9791,82.8
173.0267,377.3
173.0435,97
173.0478,86.5
173.0773,154.3
173.1157,94.3
173.1184,946.4
173.1825,110.6
173.2345,196
173.3016,387.1
173.3553,771.7
173.371,173
173.4263,532.2
173.6123,426.9
173.6508,129
173.6818,53.4
173.7293,211.5
173.735,886.8
173.7382,883.3
173.7443,157.8
173.752,209.6
173.8591,158.1
173.8698,24.7
173.8923,106.4
173.9145,175.7
173.9903,213.1
174.0006,146.7
174.0949,17.8
174.1213,176.5
174.1738,873
174.1772,305.6
174.1924,226.2
174.3293,646.7
174.3862,103.5
174.4373,90.6
174.5065,393.5
174.517,96.2
174.5861,526.6
174.5962,414.1
174.6188,417.3
174.6578,381.8
174.7267,131.8
174.7944,192.6
174.8344,18
174.8368,97.7
174.9001,121.6
174.9027,166.7
174.9105,20.3
174.938,4131.4
174.9535,576.1
174.9966,348.8
175.0342,5542.1
175.0454,2264.6
175.0671,79.6
175.0806,148.5
175.119,86198.9
175.1238,176.6
175.1773,16.8
175.2528,210.6
175.298,156.5
175.3436,760.8
175.3858,19.1
175.3933,191.9
175.4444,94.9
175.5037,172.2
175.5562,321.5
175.5639,20.8
175.6075,551.7
175.6797,315.3
175.7653,122.1
175.8782,133.2
175.8808,296.4
176.0004,102.7
176.0085,5932
176.0164,47.5
176.0658,19305.2
176.0984,141.9
176.1028,1387.3
176.1223,1091.7
176.1549,63.3
176.1912,507.7
176.2523,198.9
176.2611,760.5
176.3684,241.7
176.4007,150.8
176.4044,19.8
176.4345,210.9
176.4552,165.2
176.4875,386.1
176.5379,942.4
176.7088,194.5
176.7391,18.2
176.7446,212.6
176.8934,35.6
176.9782,56.6
177.0021,676
177.0248,2709.3
177.0611,5992.5
177.0689,520.2
177.4186,21.9
177.4592,22.8
177.4781,292.9
177.5543,456.7
177.5651,97.4
177.5789,305
177.5972,207.4
177.6067,217.2
177.6337,90.2
177.6902,117.8
177.8258,143.7
177.853,91.6
177.8566,282
177.9091,423.8
177.9711,122.3
177.9912,24.5
177.9948,26
178.0046,636.2
178.0087,10246.1
178.0165,23.9
178.0214,266.9
178.0242,8512.3
178.0365,526.5
178.0435,811.1
178.0587,5824.5
178.0789,739.4
178.1788,148.3
178.3454,557.1
178.3497,174.2
178.3634,152.7
178.4024,357.5
178.4031,346.9
178.4045,273.9
178.5363,97.8
178.5432,21.2
178.5933,201.2
178.6314,436.9
178.6656,445.6
178.7269,232.6
178.8344,99.2
178.9183,195.1
178.9219,55.1
178.9466,289.4
178.9515,323.1
178.9559,169.2
178.9642,86.3
178.9945,23.5
179.0001,50.2
179.0027,89
179.0484,101.6
179.053,22.9
179.083,83.9
179.112,422.2
179.1764,772.2
179.2595,17.6
179.3015,744.3
179.3122,916.5
179.3643,63
179.4159,128.5
179.4898,712.8
179.5293,229.3
179.5462,89.7
179.5488,196.5
179.6418,331.9
179.7146,490.6
179.8758,193.9
179.8911,20.5
179.9579,102
180.0034,6701.8
180.0105,142.3
180.0365,367.7
180.0745,270.5
180.1168,185.4
180.1253,591.3
180.1356,202.6
180.1733,522.2
180.1938,19.9
180.2365,206.1
180.7247,53.5
180.7715,195.4
180.79,713.3
180.8607,220
180.8882,752.8
180.8945,2467.5
180.9039,7349.3
180.9723,22.4
180.9782,87.7
181.0157,42.6
181.0237,471.6
181.0349,316.4
181.0614,309.9
181.0649,4057.2
181.0875,21.9
181.0922,120.1
181.0953,183.5
181.1099,18.3
181.1119,102.4
181.1174,236.2
181.1337,143.7
181.1941,217.7
181.3153,385.2
181.6512,16.7
181.6771,192.2
181.7401,667.9
181.807,279.1
181.9024,19.8
181.9471,116.1
182.0155,25.3
182.0424,28556.9
182.058,1160.1
182.0646,21
182.0907,153.2
182.1191,410.8
182.1228,124.6
182.1264,659.6
182.1543,92.6
182.1994,167.5
182.2107,19.8
182.3123,112
182.3586,19.9
182.3998,93.7
182.6146,580.9
182.6489,469
182.7181,270.8
182.8059,191.3
182.9023,29.1
182.9157,567.8
182.9286,757.8
182.9738,229.6
182.9904,99.8
183.0255,405.6
183.0442,1270.8
183.0492,555.1
183.1565,117.9
183.2514,379.3
183.3768,123.9
183.4891,96
183.554,91.1
183.7194,666.2
183.806,17.7
183.8563,236.6
183.8785,106.1
183.9647,2443
184.0137,860.1
184.0262,23.4
184.0335,16.4
184.0375,255
184.0671,368.1
184.0734,4484354
184.0764,10361.7
184.1094,186.4
184.1821,2711.2
184.2755,876.9
184.3159,113.5
184.5048,898.6
184.589,312.6
184.6649,271.7
184.6926,388.2
184.7138,111.7
184.7319,323
184.7703,577.4
184.8134,1023
184.8222,210
184.8393,126.3
184.8675,117.9
184.9298,25.3
185.0134,102.8
185.0323,86854.6
185.0373,21.2
185.0703,10764.7
185.0767,210848.9
185.0793,3696.6
185.1021,152.5
185.192,176.4
185.3596,18.1
185.3885,61.2
185.4133,98.9
185.4158,544.6
185.4804,416.5
185.515,114.9
185.5451,56.7
185.5809,94.6
185.6258,938.7
185.6961,525.9
185.704,709.2
185.7341,264.9
185.7612,982.8
185.7916,240.5
185.9598,1323
185.9986,489
186.0356,1484.4
186.0478,83
186.0516,206.9
186.0776,25291.9
186.0963,225
186.1666,220.9
186.2646,322.6
186.7737,133.8
186.7757,349.3
186.8034,377
186.8144,981.8
186.8272,282.9
186.8481,68.3
186.9214,125
186.951,117.7
186.9636,157.9
186.9784,215
187.0304,2484.9
187.053,955.9
187.0579,9646.5
187.0713,297
187.1078,621.3
187.2804,65
187.3384,20.2
187.4111,318.6
187.4858,323.5
187.7455,576
187.7769,603.7
187.7956,375.5
187.8229,22
187.8321,351.4
187.9016,324.2
187.9048,81.5
187.9059,78.9
187.9156,22.2
187.9219,55.4
188.0188,524.4
188.0962,211.6
188.1579,94.1
188.1813,16.8
188.2102,1016.9
188.2264,403
188.2701,837.4
188.3192,336.4
188.3706,89.3
188.4035,87.1
188.4498,179.4
188.4996,164.2
188.5249,19.4
188.6487,92.2
188.6737,389.2
188.6845,102
188.7588,137.2
188.7693,907.4
188.8088,198.6
188.8158,19.1
188.9387,167.6
188.982,398.9
188.9841,21.4
189.021,65.4
189.0274,792.8
189.0611,3356.7
189.087,6615.7
189.2551,312.8
189.2867,383.5
189.3418,94.5
189.7144,546.8
189.7408,160.5
189.7772,60.3
189.8279,205.5
189.9284,18.4
189.9667,87.4
189.9912,113.8
190.0097,411
190.1148,101.7
190.1939,102
190.2087,458
190.2113,17.3
190.257,59.1
190.2767,848.7
190.2967,150
190.481,347.8
190.5531,230.4
190.7488,326.7
190.8193,514.4
190.8499,60.5
190.8615,171.2
190.8725,392.1
190.8789,111.5
190.8978,632.3
190.9486,20.5
190.9683,18.5
191,146.7
191.0081,3817.1
191.0168,160.1
191.0241,47.1
191.0404,111315.3
191.0768,17054.4
191.2372,123.1
191.3207,175.1
191.425,279.5
191.5693,134.1
191.6636,95.7
191.669,198.1
191.8424,538.5
191.8716,82.7
191.8951,520.9
192.0131,459.4
192.0399,9569
192.0437,2559.8
192.0644,344.9
192.0676,128.6
192.0983,111.2
192.1379,19.2
192.1994,823.7
192.3941,95.1
192.3976,96
192.4077,428.7
192.4154,122.1
192.4399,197
192.6241,95
192.8939,132
192.9107,67.3
192.9797,171.1
192.9903,99.4
192.9986,4594.6
193.0114,165.2
193.016,152.3
193.0277,438
193.0351,1976.1
193.1111,121.4
193.1168,753.8
193.1254,585.1
193.1685,522.3
193.2672,186
193.3158,1149.3
193.3388,396.2
193.3507,397.1
193.412,87.8
193.5479,120.8
193.578,644.2
193.611,173.3
193.6158,358.7
193.627,602.9
193.8096,88.8
193.8345,59.4
193.8703,139.3
193.906,371.4
193.9131,101.3
193.922,354.4
193.953,142.9
193.9657,125.1
193.9981,814.9
194.0054,942
194.0094,100.4
194.0327,2818.2
194.0646,19.8
194.154,84.1
194.1581,472.3
194.2358,95.4
194.2421,80.8
194.2553,91.9
194.2957,209.9
194.3448,441.8
194.3753,19.9
194.463,110.2
194.5782,684.1
194.5868,192.3
194.6161,135.3
194.811,589.2
194.8492,194.9
194.8868,472.6
194.9038,228.4
194.9213,393.9
194.9412,242.5
194.9573,990.3
195.0115,45.5
195.0913,160.1
195.099,381
195.1296,16.6
195.2169,647.8
195.2182,660.7
195.3513,18.1
195.5184,197.8
195.5242,624.4
195.9079,95.3
195.9271,152.6
195.9523,106.3
195.977,324
195.9822,23.6
195.9845,235.7
195.9917,613.2
196.0125,18.7
196.0792,359.7
196.1058,206.6
196.1239,18.4
196.1696,252.6
196.2095,161.8
196.2359,403.3
196.3077,244.3
196.3538,625.5
196.4204,94.1
196.4968,163.1
196.8652,6699.3
196.8687,983
196.8782,1315.7
196.8936,710.2
196.9324,220.6
196.9494,216.8
196.9716,96
196.9745,190.2
197.0321,310.9
197.09,246.5
197.2048,161.3
197.3253,173.2
197.3529,282.1
197.3627,88.5
197.4275,881.4
197.5625,130.7
197.6082,522.9
197.7323,231.9
197.7468,427.3
197.753,242
197.7593,534.6
197.8123,532.3
197.8194,160.7
197.8586,121.2
197.8772,427.9
197.8907,21.8
197.9433,234.3
197.9735,130.2
198.0529,601.5
198.0849,9502.9
198.111,169.4
198.1853,6319.5
198.2269,456.1
198.4139,389.4
198.4281,190.9
198.604,198.9
198.6663,167.4
198.7303,365.3
198.7467,269.4
198.7503,20.6
198.8199,164.5
198.8525,713.1
198.8623,4847.8
198.8692,511
198.8998,23.7
198.9043,117.1
198.9199,243.5
198.9443,58.1
198.9551,235.6
198.9605,19.3
198.9683,680
198.9989,275
199.0165,279.9
199.0367,114
199.0449,115.1
199.0625,415.1
199.0754,1011.9
199.08,47.4
199.0883,109.5
199.0982,517.7
199.1888,294.3
199.3743,146.9
199.3986,548.3
199.405,378.1
199.4183,150.7
199.5166,231.5
199.5563,848.9
199.5725,350.5
199.5995,152.7
199.6062,943.4
199.6502,96.7
199.7071,158.2
199.7785,232.8
199.8114,713.3
199.8223,93
199.849,386.2
199.9136,18.2
199.9494,1016.2
199.9633,314.2
199.9907,30928.8
200.0002,598.9
200.0408,12941.5
200.102,196.1
200.2505,211.3
200.2874,127.4
200.3027,14853.5
200.3188,377.9
200.3497,522.4
200.3954,167.8
200.4039,65.7
200.4949,19.8
200.5078,142.9
200.5634,197.6
200.6039,754
200.6194,130.4
200.6494,83.5
200.6609,407.2
200.7793,788.3
200.8594,1321.4
200.8848,226.6
200.8943,537
200.9055,67.7
200.9493,527.5
201.0005,21.2
201.0072,241.2
201.0276,618.7
201.044,785.4
201.087,124.7
201.1076,340.8
201.1119,321.4
201.1166,99.2
201.155,208.6
201.1591,110.8
201.2147,970.5
201.2395,143.1
201.3753,782.8
201.4109,220.1
201.4462,581.4
201.5438,737.7
201.5463,448.7
201.6271,227.8
201.6763,364.8
201.7385,586.5
201.7932,387.3
201.7997,997
201.8648,117.9
201.8944,29.9
201.9294,215.2
201.9341,402.9
201.9773,424.5
201.9955,139.1
202.0161,98.8
202.0728,230.7
202.3656,172
202.467,260.7
202.5534,237.8
202.6096,246.8
202.6349,16718.6
202.6586,367.7
202.7153,999
202.722,131.4
202.7296,118.3
202.8069,260.2
202.8948,34.6
202.9617,518
202.971,212.2
203.0318,5456.5
203.0486,721.1
203.0527,1684193.5
203.0568,881.3
203.0579,372
203.0768,7582
203.0963,79.7
203.1215,662.5
203.2377,190.8
203.294,104.2
203.4644,107.5
203.4741,210
203.6812,225.3
203.7031,176
203.8713,749.5
203.8946,877.3
203.9664,247.1
204.0244,48390.5
204.0318,92.1
204.0422,677.5
204.0493,400.1
204.0561,82678.8
204.0989,319
204.11,174.3
204.1796,20.8
204.5026,226.4
204.5229,480.3
204.5759,91.4
204.6148,254.8
204.6262,122.4
204.6766,368.1
204.7236,209.5
204.8345,89
204.873,22.5
204.8831,340.2
204.8888,99.1
204.9407,352.6
204.9817,583.9
205.0181,412
205.0277,217.1
205.0569,13564.4
205.072,416.4
205.0834,36.4
205.0909,116.7
205.15,124.3
205.1795,372.7
205.2231,166
205.2858,156.2
205.3152,68.8
205.3272,498.2
205.3768,17.6
205.5114,98
205.5253,235.6
205.5497,53.1
205.5693,228.5
205.5769,624.3
205.6367,425.6
205.6529,190.8
205.6669,18.2
205.7162,705.4
205.7442,150.5
205.8605,149.3
205.9261,197.6
205.974,671.3
205.9773,406.1
205.98,112.3
206.0113,100.7
206.0474,101.6
206.0556,2905.7
206.1746,115.2
206.2276,499
206.2927,66.8
206.3192,535.6
206.349,147
206.3872,200.8
206.3966,162.8
206.476,590.3
206.5676,92
206.8204,312
206.888,69.9
206.894,12442.5
206.9099,88.9
206.9124,20.8
206.9168,216.5
206.982,1340.8
206.9978,213.2
207.0066,299.1
207.0144,72090.9
207.0394,680.9
207.0443,857.7
207.0508,8748
207.111,100.6
207.1213,378.9
207.1789,476.6
207.1893,18.9
207.2832,19.8
207.3045,831.5
207.4837,271.5
207.5123,988.2
207.5338,120.9
207.6566,168.1
207.6746,217.1
207.923,219.5
207.9319,190.2
207.9476,20.1
207.9544,566.9
207.9906,1556.6
208.0012,96.3
208.006,284.8
208.014,400.9
208.0174,1194.8
208.0214,118.9
208.0265,170.6
208.0426,20.6
208.0559,95
208.1027,712.7
208.1307,349.9
208.1731,211.9
208.2084,90.4
208.2622,84.3
208.2828,58.8
208.382,345.2
208.424,721.6
208.5431,141.9
208.6043,396.9
208.669,165.1
208.688,82.2
208.7654,177.4
208.8063,107.1
208.8831,1473.9
208.891,8807.4
208.9353,633.9
209.0062,350.5
209.0124,1743.6
209.0264,64.2
209.0603,19.1
209.0702,109
209.1115,799.2
209.1221,169.3
209.1762,628.8
209.2397,89.1
209.2715,694.9
209.2853,601
209.3676,145.2
209.4069,157
209.4228,344.1
209.4287,784.3
209.4324,408.2
209.442,119.7
209.5108,159.3
209.5168,241.5
209.5788,155.2
209.8839,18.7
210.1634,16.8
210.7157,132
210.7547,151.1
210.864,297.6
210.9404,88
210.9479,90.8
210.9514,20.6
210.9789,255.3
211.0492,301.7
211.0564,258.5
211.0691,527.6
211.1047,183.8
211.1368,376.1
211.1469,319
211.1823,482
211.248,214.5
211.302,12829.5
211.3057,15544.7
211.3089,19821.2
211.3114,22102.5
211.3142,29446.2
211.3168,25514.7
211.3222,11148.4
211.3248,10380.4
211.3314,4564.4
211.337,3003.4
211.3413,283.3
211.3708,155.1
211.4787,405.6
211.4876,59.9
211.5429,553
211.5968,525.5
211.6013,370.1
211.6657,86.4
211.6788,377
211.6843,505.9
211.7549,771.2
211.8032,150.9
211.9353,85.4
211.9593,78.5
211.9668,75.3
212.0253,121.7
212.032,177
212.0681,116.6
212.074,75
212.0928,171.4
212.1272,266.2
212.1844,632.8
212.2167,577.4
212.2238,684.3
212.2754,366.2
212.3928,1005.8
212.4894,736.6
212.5066,861.4
212.5269,107.6
212.7814,600.8
212.8392,2599.1
212.8466,695
212.9015,178.2
212.9118,358.6
212.9613,145.9
212.965,19.9
213.0321,23.2
213.0546,967.7
213.193,739.7
213.2158,666.3
213.2925,364.1
213.3189,227.8
213.4083,646.1
213.4377,16.6
213.4589,195.8
213.5729,102.9
213.665,413.9
213.7948,164.2
213.8792,163.8
213.9621,2348.1
213.9847,255.4
214.0066,551.5
214.0321,302.5
214.049,107.2
214.059,10479
214.0897,1256.1
214.1976,898.4
214.213,100.4
214.2846,789
214.2957,283.8
214.536,195.2
214.5731,419.3
214.6826,291.4
214.8362,1531.4
214.8734,51.7
214.9099,161
214.9524,400.6
214.9651,54.8
215.0347,344.8
215.0476,239.5
215.0601,371.5
215.0671,124.8
215.0933,61.3
215.0966,723.4
215.1041,387.8
215.126,778.5
215.1365,111.3
215.1501,285.9
215.1764,185.9
215.3033,106.3
215.6887,16.8
215.7054,245.4
215.9184,85.8
215.9317,129.4
215.9579,63.7
216.0147,6712.6
216.1469,282.6
216.1613,366.1
216.2629,97.8
216.2641,129.5
216.2651,119.4
216.3553,149.6
216.3904,118.1
216.4174,125.3
216.4206,231
216.4997,164.6
216.5639,437.3
216.6529,97.1
216.657,340.7
216.6942,373.5
216.6998,352.6
216.7078,192.6
216.7144,680.7
216.7178,18.2
216.7373,451.2
216.7457,17.3
216.8091,282.1
216.876,127.1
216.9228,37720.9
216.9358,150
216.9652,95.3
217.0202,421.6
217.0271,371.2
217.0562,208.2
217.0689,377.3
217.082,1327.4
217.0951,17.7
217.2056,115.8
217.2389,287.4
217.2813,192.7
217.3933,198.1
217.4154,149.2
217.4206,192.7
217.4847,617.1
217.5077,112.6
217.5297,23
217.6951,187.9
217.8005,84.6
217.8186,250.1
217.852,653.3
217.8789,405.5
217.9966,18.2
218.0227,216.1
218.1223,24.2
218.1457,778.7
218.1517,71.7
218.1882,224.6
218.2156,110.9
218.2229,84.2
218.2699,452.2
218.3133,94.7
218.3725,91.5
218.3814,97.1
218.4039,478.5
218.4781,504.1
218.5776,423.6
218.6001,540.6
218.7282,170.2
218.7985,174
218.8102,538.6
218.8675,179.7
218.9045,101.3
218.9199,11192.4
218.9827,550.6
219.0177,1162.2
219.0211,519.4
219.0267,1676454.8
219.0316,1567
219.083,4889
219.1167,16.1
219.1677,416.3
219.1719,110.7
219.2488,169.7
219.3803,633.7
219.4048,62.8
219.4418,178.3
219.449,17.5
219.4584,960.8
219.539,20.8
219.5696,708.8
219.6155,219.6
219.7643,1023.5
219.8005,315
219.8197,96.6
219.8634,175.7
219.9197,103.5
219.9413,23.1
220.03,94644.8
220.037,742.8
220.0556,517.4
220.067,6433.3
220.0711,132.6
220.1012,233.4
220.111,92.3
220.1673,607
220.2237,664
220.2403,295.2
220.2881,288.7
220.4202,169.1
220.5994,390.9
220.625,832.5
220.752,290.1
220.8514,212
220.8837,19.3
220.9056,39.5
220.9725,117.1
221.0248,100709.2
221.0309,15231.7
221.042,488.5
221.051,1448.4
221.0665,484.8
221.0845,316
221.0874,191.1
221.1489,454.5
221.2105,590
221.2159,631.4
221.2334,59.3
221.3228,113.3
221.3843,86.5
221.617,216.2
221.6396,178.8
221.6774,446.3
221.7339,146.6
221.8181,178.7
221.819,175.5
221.8386,643.6
221.9021,20.1
221.9071,17.9
221.9157,533.2
221.9309,217.8
221.9564,108.1
222.0281,1908.2
222.0377,416.5
222.0435,522.8
222.0558,60.3
222.0614,229.6
222.0904,90.5
222.1507,107
222.2915,121.4
222.3463,71.8
222.4528,366.7
222.4869,223.8
222.5485,308.6
222.6002,90.1
222.6566,235.9
222.6697,635.1
222.8145,227.7
222.868,13050.4
222.8794,607.5
222.8989,531.9
222.9209,130.2
222.9539,1820.2
222.9883,7056.9
223.0026,74.9
223.0632,20.1
223.0746,878.9
223.1083,225.7
223.1866,22.8
223.208,137.3
223.2544,147.7
223.3167,644.4
223.3257,17.7
223.4443,225.1
223.4879,183.7
223.5201,103.4
223.5395,19.1
223.5553,302.4
223.5674,601.3
223.5786,147
223.7701,98.1
223.8426,239.2
223.9085,291.3
223.9344,220.9
223.9417,445.5
223.9531,31.6
223.9572,560.3
224.0256,247.7
224.0298,602.5
224.0467,217.3
224.0552,819.6
224.2316,171.2
224.3439,337.3
224.427,712.7
224.5477,227.8
224.6545,229.4
224.7136,20.6
224.753,578.9
224.8023,21.8
224.865,7824.4
224.9137,755.8
224.9272,122.4
224.9326,749.7
224.9482,217.5
224.954,18.2
224.9915,102.1
225.0236,27.1
225.033,640.2
225.0548,23976.7
225.0847,151.3
225.21,314.9
225.3464,670.7
225.4396,327.1
225.4439,432.9
225.4777,23.1
225.5062,941.7
225.5248,409.9
225.6873,285.8
225.767,358.9
225.8978,19.5
225.9519,29.3
225.9622,56
225.9971,124.6
226.0021,28.3
226.0063,1933.3
226.0242,6264.5
226.0453,6412.3
226.0581,394.2
226.0706,95.5
226.0911,19.6
226.1053,408.4
226.1747,735.7
226.1838,437.2
226.2021,459.7
226.253,96.4
226.3538,119.6
226.3582,644.1
226.4379,184.4
226.4903,858
226.5417,549.4
226.5467,349.3
226.5536,92.5
226.8433,18.7
226.8478,214.3
226.8936,18.1
226.9283,20.8
226.9402,162.9
226.9516,27797.5
226.9564,615.7
227.0055,88.9
227.0242,83.5
227.0343,145.2
227.0789,1029.7
227.0865,155.2
227.158,343.7
227.1624,842.6
227.2106,274.5
227.2705,124.8
227.2898,202.9
227.3178,200.6
227.3403,1066.2
227.3726,912.1
227.3968,388.7
227.4056,142.1
227.575,185.9
227.7211,162.4
227.8375,404.3
227.8512,622.2
227.9616,220.8
228.0003,169.7
228.0562,942.1
228.0667,704.9
228.1503,600
228.1595,138.4
228.2047,21.9
228.3103,135
228.3392,123.5
228.3419,450.9
228.5185,258.8
228.5982,905.7
228.6581,166.6
228.7212,195.1
228.7822,530.6
228.8128,480.2
228.8325,633.7
228.8749,160.1
228.9601,135.6
229.0695,244.6
229.0998,473.7
229.1186,622.6
229.1321,328.2
229.3043,135.5
229.3596,336.9
229.4355,209.2
229.4774,347.7
229.5186,139.5
229.5202,147.7
229.7006,244.7
229.8524,181.6
229.9393,392.2
229.9403,390.5
229.9518,699.9
229.957,7654.4
230.0333,134.9
230.0386,102.8
230.1058,109.1
230.1138,1432.7
230.1777,921.2
230.2075,248.2
230.2818,57.3
230.443,132.3
230.4811,19.6
230.5117,202.6
230.599,422.5
230.7302,308.9
230.8099,1079
230.8743,17.6
230.8901,345.7
230.9604,270.2
230.9802,716.4
230.9905,20.5
231.0547,567.9
231.071,18.1
231.147,893.4
231.2093,65.5
231.3598,420.3
231.4151,767.5
231.4276,933.7
231.4596,590.6
231.5821,22.8
231.6512,97
231.6735,530.4
231.7249,441.6
231.8043,159.1
231.8201,165
231.8284,804.9
231.8628,140.6
231.903,198.7
231.9187,220.2
231.9291,202.3
231.9529,178.1
231.9573,243.6
231.9716,658.9
231.9769,89.9
231.9952,80.7
232.1526,82.3
232.2528,200.5
232.2688,199.9
232.3653,97.1
232.4641,86.7
232.5151,380.8
232.871,292.5
232.8833,62.2
232.8968,35066
232.9078,117.9
232.9435,113.8
232.9581,147.4
232.9722,698.1
232.9859,565.7
233.0509,9661.4
233.1651,102.4
233.2343,144.4
233.264,97.4
233.2841,255.1
233.2963,68.1
233.374,160.9
233.4268,20.5
233.5784,751
233.6141,166.3
233.6236,776.6
233.6741,282.2
233.914,21.7
233.9529,39.2
234.0128,21
234.0742,362.5
234.1261,537.3
234.1467,20
234.2236,617.1
234.246,158.6
234.3828,233.6
234.3966,1004.9
234.426,346.6
234.4447,24.8
234.4517,96.7
234.5779,584
234.621,372.7
234.7731,320.2
234.7837,152.5
234.7924,94.1
234.8431,19
234.8881,100.8
234.8936,8080.1
234.8996,54.9
234.9113,22.6
234.9392,92.6
234.9816,4709.7
235.0448,663.6
235.0568,1945.8
235.0667,1390
235.0926,6188.6
235.1549,114.7
235.1732,778.8
235.1856,125.6
235.3279,1127.7
235.3902,712.7
235.6027,20.6
235.6334,115.8
235.7443,550.1
235.7721,17.5
235.8249,210.1
235.8286,20.1
235.9021,132
235.9132,52.3
235.9804,303.8
236.0076,410.4
236.0221,498.7
236.0409,3621.9
236.0717,55058.3
236.0925,135.5
236.2122,520.9
236.299,86.5
236.4532,386.1
236.5426,107
236.6572,100.6
236.6697,809.5
236.7461,112.3
236.8568,282.3
236.8781,202.1
236.9148,20.6
236.9627,913.8
237.0294,84
237.0522,454.1
237.075,2262.3
237.1558,167.3
237.2208,99.8
237.3636,186.1
237.3808,408.1
237.4413,1062
237.4815,166.2
237.5992,554.8
237.7332,631
237.7962,152.7
237.8261,167.9
237.8895,311.2
237.8933,1121.8
237.9294,182.7
237.933,431.9
237.9913,627.4
238.0418,781.1
238.0478,269
238.0675,640.1
238.1489,294.7
238.155,895.8
238.157,610.1
238.1602,178.8
238.1865,20
238.2117,18.2
238.221,203
238.2501,101.7
238.3275,171.3
238.3317,462.3
238.3348,530.5
238.5332,940.9
238.722,204
238.7826,17.1
238.7895,252.6
238.8044,531.4
238.842,5406.5
238.8632,435.9
238.9432,112
238.9829,261.5
239.0039,134.8
239.0091,4182.8
239.0464,103.4
239.0505,482.2
239.0552,362.1
239.0637,104.1
239.0712,20.5
239.1334,89.8
239.2144,98
239.2579,376.7
239.3264,184.8
239.4289,334.5
239.4376,96.3
239.4498,557.2
239.4707,381.1
239.5602,459.7
239.5625,184
239.5689,19.3
239.6548,351.7
239.7295,103.4
239.7719,103
239.8986,188.9
239.9997,19.7
240.1001,782.3
240.1062,306.3
240.1207,305.2
240.2167,161.9
240.2413,134.6
240.2449,279.6
240.5393,18.4
240.5863,108.1
240.6073,256.3
240.7166,88
240.74,238.9
240.8391,3692.4
240.9197,463
240.9548,1757
240.9671,1597.9
241.0538,415.7
241.0713,89.9
241.1162,408.7
241.1566,306.4
241.1697,286.4
241.1757,970.5
241.2159,17.2
241.3138,242.9
241.3305,322.8
241.3449,190.5
241.3567,535.4
241.434,330.3
241.5052,651.1
241.5331,208.8
241.5699,579.8
241.6649,270.3
241.7964,668.8
241.7992,20
241.9347,365.7
241.9775,155.5
241.9983,590.8
242.0049,173.6
242.0195,3401.7
242.0286,433.5
242.4037,186.2
242.4726,98.2
242.5137,18.4
242.6307,652.8
242.6748,369
242.7538,230.7
242.9255,15610.2
242.9461,222.3
243.0063,442.9
243.0531,7485.8
243.0654,8390.7
243.1967,18.1
243.2226,130.4
243.2843,21.5
243.3433,353.1
243.3717,97.7
243.3964,67
243.4202,388.3
243.6253,18.8
243.6569,588.1
243.7729,96.4
243.8158,350
243.8252,312.3
243.8288,518.6
243.9727,3235.2
243.995,122.4
244.0128,133.3
244.1243,173.6
244.1284,695.7
244.2105,193
244.2669,226.8
244.2723,237.3
244.3708,661.2
244.3942,868.6
244.4347,149.5
244.4561,476.2
244.5529,109.3
244.5597,424.8
244.6283,739.6
244.6585,160.3
244.8402,691.1
244.8708,4035
244.8826,303
244.9658,315.8
244.976,180.4
245.0568,459.2
245.1222,185.1
245.2872,340.4
245.3008,517.2
245.3168,182.1
245.3754,953.4
245.3847,152.4
245.697,19.1
245.8333,778.8
245.969,45
245.973,92.4
245.9873,139.9
246.0012,35.6
246.1765,58.7
246.3092,20.2
246.3158,997.6
246.3757,371.4
246.3769,350.3
246.5517,138.2
246.6889,194.5
246.7983,20
246.8077,48.2
246.8625,403.8
246.8671,112.8
246.8853,29.7
246.9009,17.6
246.9516,2057.6
246.9807,379.6
246.9945,322.9
247.0344,690.2
247.05,272.9
247.0578,777.8
247.0668,304.5
247.0759,537.2
247.0926,3860.1
247.2012,288.9
247.2101,236.4
247.2423,180.9
247.3121,135.4
247.4665,596.4
247.4807,510.5
247.4816,521.3
247.4832,196
247.6271,338.3
247.6532,201.3
247.7228,750.3
247.892,86.5
247.9676,711.1
247.9832,389
247.9968,112.9
248.0334,476.5
248.1243,17082.5
248.1514,99.6
248.2084,423.2
248.2386,585.6
248.3847,251.6
248.4379,161.3
248.4559,324.1
248.5638,619.6
248.6275,188.8
248.6912,20.2
248.8506,392.8
248.8707,8723.4
248.9006,141.6
248.9411,18.6
248.9483,115.7
248.9595,1036.8
248.9966,251.5
249.0155,475
249.0613,9407.6
249.1746,167.4
249.1897,422
249.3176,132.6
249.4127,364.1
249.5076,614.3
249.5701,20.9
249.679,1100.4
249.9204,24.2
249.9398,24.2
249.9687,22.7
250.0057,408.7
250.0083,421
250.0381,1521.5
250.1099,25.4
250.1417,374.9
250.1557,180.3
250.288,188.2
250.3867,644.8
250.4031,178.9
250.4907,828.5
250.5978,139.1
250.6175,189.7
250.709,669
250.7711,175
250.798,435.9
250.8221,296.6
250.8491,85.8
250.8939,129.9
250.9203,1798.3
250.9551,1176.3
250.9746,169.4
250.9999,18.4
251.0338,93.4
251.1516,310.7
251.4659,705.8
251.4947,870.6
251.6931,193.8
251.7603,333.2
251.7621,394.4
251.7701,86.2
251.7806,869.9
251.8093,324.7
251.8203,949.9
251.8326,96.1
251.9085,139.3
251.9207,353.6
251.9426,411.3
251.9805,394.6
251.9864,101.7
252.0091,173.1
252.0352,244.9
252.0457,111496.3
252.0652,20.6
252.1088,93.9
252.1232,110.9
252.1681,21.2
252.3346,101.3
252.4614,648.9
252.5333,229.1
252.5941,783.3
252.6234,93.5
252.6495,801.2
252.6718,71.9
252.8184,108.3
252.8613,552.3
252.9173,533.6
253.0388,17.4
253.049,4248.3
253.1233,1112.5
253.1284,406.5
253.1356,383.9
253.1895,96.5
253.2329,252.1
253.3612,698.2
253.4344,162.9
253.6287,785.1
253.6676,189.1
253.8403,130.5
253.9705,213.5
254.0208,120.4
254.0355,960.2
254.0436,2747.9
254.1195,397.1
254.2092,256.3
254.255,96.1
254.351,99
254.4009,484
254.4793,990.4
254.4929,19.2
254.5304,17.7
254.551,356.6
254.7007,436.4
254.7366,314.7
254.7889,637.4
254.816,567.6
254.8239,6903.7
254.9072,602.5
254.9251,403.1
254.9707,846.9
254.986,104.9
255.0019,86.3
255.033,24055.1
255.0463,1180.1
255.075,83.8
255.1712,168
255.2209,21.8
255.2535,115.3
255.2794,85.9
255.4836,384.1
255.4977,522.7
255.5173,659.6
255.5721,816.5
255.683,237.2
255.7018,360.1
255.7658,95.7
255.8589,198.2
255.9782,1094.3
256.0034,985
256.0585,25.2
256.1322,394.8
256.1334,406.6
256.1771,352.3
256.3483,639.7
256.4009,226.9
256.4093,925.8
256.4667,362
256.6285,285.4
256.7192,98.9
256.8083,188
256.8209,8290.7
256.9113,358.1
256.9381,453.7
256.9588,97.3
256.9814,24
257.0219,130.6
257.0417,543.3
257.0487,6247.4
257.0638,450.7
257.0745,45879
257.08,182.9
257.4123,192.1
257.4671,112.5
257.816,18.7
257.9519,282.3
257.9786,402.3
257.9885,149.9
258.03,1035.1
258.0426,107.2
258.0514,221.9
258.0619,99.4
258.074,29.5
258.0781,1117.6
258.1103,18909.9
258.1213,719.8
258.1341,191.2
258.1461,216.8
258.1583,179.6
258.2642,63.8
258.4812,242.1
258.5611,89.7
258.6284,102.2
258.6429,889.6
258.6999,21.1
258.7701,226.3
258.7968,496.3
258.8181,4446.5
258.8731,544.9
258.8994,2434.5
258.9069,875.2
259.0952,164.5
259.1242,125.7
259.1452,422.7
259.3312,100.9
259.4984,479.8
259.5416,287.5
259.5545,175.3
259.5625,117.8
259.8715,369.4
259.8996,24.2
259.92,733.3
259.9448,19.1
259.97,105.1
260.1252,191.9
260.2049,21.2
260.4625,258.9
260.5388,104.4
260.5842,95.9
260.8447,1276.9
260.9053,343.1
260.9492,6569.3
260.9987,383.4
261.0173,163.9
261.0386,347.7
261.0459,572.4
261.0701,694.6
261.1019,430.7
261.3935,111.1
261.4034,1036.3
261.6257,161
261.7388,339
261.7693,609.8
261.8422,145.4
261.9833,312.5
262.1397,158.8
262.1968,184.5
262.257,276.9
262.3664,396.7
262.398,341.7
262.4602,109.1
262.6144,141.4
262.7641,95.6
262.7746,142.4
262.8316,981.2
262.8922,20.4
262.9389,139.4
262.9462,1843.7
263.0737,472.1
263.0846,858.8
263.1365,81.2
263.1841,557.1
263.3518,379.6
263.3678,196.4
263.4758,619.7
263.5021,201.5
263.6446,438.6
263.6526,601.2
263.6911,812.8
263.7315,635.2
263.7377,1031.2
263.8747,20.6
263.8983,848.1
263.9491,99.5
263.9873,191.6
264.0135,242.5
264.2034,161.7
264.205,153
264.4112,21.5
264.4164,878.9
264.4262,139.7
264.5049,340.6
264.7204,119.8
264.8446,1131
264.8526,3906.8
264.8731,141.3
264.8825,116.2
264.8962,378.5
264.9334,1135.4
264.9693,117.7
264.9734,350.7
264.9788,56.6
264.9884,12801.5
265.0162,28.1
265.0232,743.6
265.0352,7305.9
265.0476,2329.6
265.1583,253.5
265.1974,304.1
265.2664,22.7
265.4357,95.1
265.4708,96.8
265.537,291.6
265.6844,286.7
265.8543,111.2
265.9314,16.9
265.9576,98.5
265.9783,342.9
265.9917,382.9
266.0416,162.6
266.2337,20.4
266.2998,18.3
266.3192,718
266.3328,918.9
266.3537,649.9
266.3637,97.7
266.4086,16.5
266.5233,162.6
266.5548,18.5
266.6664,23.4
266.7716,529.5
266.8498,4357.9
266.8943,2272.1
266.959,115.1
266.9837,562.6
267.0591,653.9
267.0997,483.4
267.243,87.3
267.2709,439.4
267.4411,117.4
267.553,234.5
267.5897,174.3
267.6471,1922.7
267.723,767.9
267.9009,133.7
267.9215,256
267.9739,64.6
267.9939,811.3
268.009,109.3
268.0296,667.6
268.1401,18.2
268.146,324.2
268.2554,103
268.304,20.8
268.3244,863.3
268.3288,16.9
268.4696,405.6
268.5102,591.2
268.5212,289.7
268.7192,481.7
268.7625,231.4
268.7763,295.1
268.8389,873.5
268.8472,1195.2
268.9638,78.5
268.976,181.7
269.0119,18.3
269.0279,329.9
269.0326,329.9
269.0486,41945.1
269.091,838.8
269.095,151.5
269.1164,433
269.2197,182.2
269.2689,583.8
269.3867,104.6
269.4897,661.4
269.5536,61.7
269.6625,355.1
269.7659,492.6
269.9895,335.2
269.9937,1171
270.0097,121.7
270.019,473.9
270.0248,16313
270.0473,25272.7
270.0529,481
270.145,2233.6
270.2302,113
270.2536,18.6
270.3489,226
270.3785,230.3
270.5019,95
270.6095,343.2
270.6137,169.1
270.6758,104.4
270.7621,439.8
270.7877,386.5
270.7979,3192.4
270.8594,18
270.9402,635
270.9597,64.9
270.9779,14828.1
271.028,1369.7
271.0507,195.5
271.0807,584.5
271.0903,1355
271.2412,607.4
271.3599,236.4
271.3787,874.5
271.3891,126.6
271.4455,72.6
271.8248,242.8
271.8825,177.7
271.8909,707.9
271.9511,165.7
271.9681,294.7
272.0205,449.5
272.0331,164.6
272.0432,56.3
272.0474,67.4
272.0811,251.6
272.2424,26.2
272.2876,199.2
272.3078,176.8
272.325,232.2
272.3835,135.7
272.4614,172.4
272.4906,166.3
272.5417,424.8
272.6427,135.8
272.7683,110.3
272.7949,3415.2
272.8038,163.7
272.909,266.1
273.0235,21.7
273.0486,2284.7
273.3435,176.4
273.3539,547.4
273.4614,308.2
273.5628,19.3
273.5833,743.6
273.802,621.9
273.9067,189.5
273.9626,12427.4
274.0149,292.3
274.0728,413.9
274.0923,3463.6
274.0996,90.9
274.1147,366
274.1278,20.4
274.198,240.2
274.2117,537.8
274.2399,782
274.2707,733.2
274.3002,219.2
274.312,19.9
274.3318,666.1
274.4935,677.4
274.7461,602.9
274.7919,1832.3
274.8028,27.8
274.9664,243.6
274.9764,281.9
274.9826,32.9
275.0243,21.2
275.0749,128.2
275.1026,323.1
275.127,376
275.1358,84.1
275.1733,144
275.2185,139.6
275.2254,357.1
275.239,143.6
275.2921,220.9
275.3001,253.7
275.5339,100.4
275.5796,325.4
275.9281,21.2
275.9318,390.1
275.9405,874.8
275.9628,24.3
276.0035,52.9
276.0213,169.2
276.0706,346.3
276.0856,70.4
276.115,218.9
276.1316,103.1
276.3906,19.8
276.5518,512.7
276.6045,334.8
276.6299,321.7
276.6499,52.5
276.6611,64.3
276.7911,206.1
276.8072,17.2
276.8377,167.1
276.9106,30
276.9231,8481.6
276.9458,117.1
277.013,423.6
277.3057,225.1
277.3342,211
277.4291,522.2
277.6408,19.6
277.6528,189.1
277.8799,17.2
277.9997,19.7
278.0189,328
278.1238,159.7
278.1631,138.1
278.2875,199.7
278.2932,20.3
278.4393,95
278.4608,361.1
278.5786,229.9
278.7723,516.5
278.8051,157.5
278.843,301.5
278.8755,147.6
278.8883,23.5
278.893,926.4
278.9203,2012.6
278.9873,796.9
279.0041,1032.2
279.0565,37880.9
279.0822,137
279.2159,133
279.2449,237
279.3764,150.5
279.3949,290.2
279.5246,217.9
279.6768,153.6
279.6951,117.6
279.7143,72.6
279.7612,215
279.851,249.3
279.8864,82.8
279.8931,831.2
279.8962,881
279.9078,58.9
279.9173,100.2
279.9964,161.8
280.0119,914.2
280.0598,1651.3
280.0831,100.1
280.1553,419
280.175,426.8
280.3314,171.7
280.5289,90
280.5307,127.3
280.5318,112.5
280.6495,149.2
280.8265,2346.4
280.8587,201.3
280.9621,628.1
280.9849,661.8
280.9963,219.3
281.0032,109.5
281.0439,576.2
281.0514,344.4
281.0693,93.4
281.1765,20.2
281.1965,409.5
281.3218,830
281.5962,611.2
281.7642,125.7
281.8339,102.6
281.9081,224.7
281.9498,21.8
282.0145,83.3
282.0512,167.2
282.0647,287.4
282.0833,201.5
282.2262,104.4
282.3679,21
282.4047,148
282.4785,384
282.6004,210.2
282.6247,99.7
282.6754,492.3
282.8237,2306.1
282.9137,540.8
282.9263,164.8
282.9325,150.8
282.9387,352.7
282.981,630.9
283.0485,34.7
283.1169,809.4
283.2613,139.8
283.3547,939.5
283.3984,103.7
283.4833,698.4
283.5132,485.6
283.8656,168.5
283.8737,146.5
283.9378,21.6
283.9892,67.2
284.004,66.1
284.0246,150.8
284.0526,443.5
284.0629,113.7
284.1549,558.6
284.3062,348.9
284.3495,157.6
284.3678,19.5
284.5876,237.8
284.6125,94.2
284.7856,661.6
284.8842,97.9
284.8991,571.5
284.9882,102.3
284.9958,942.1
285.0229,209.2
285.0381,22.9
285.0479,258
285.1238,2121.3
285.388,1062.9
285.483,819
285.4981,149.7
285.5622,25.4
285.6499,139.3
285.958,751.6
285.984,31.6
285.9966,603
286.0046,332.4
286.0198,4131.6
286.0394,131.4
286.0941,417.4
286.171,169
286.3416,19.8
286.3487,173.3
286.5459,98.5
286.7009,416.3
286.7601,460.8
286.772,1574.7
286.898,18.2
286.9519,5014.2
287.0231,334.2
287.0553,29025.5
287.0994,665.2
287.4024,386.2
287.7648,455.8
287.8556,270.2
287.8727,755.3
287.9132,657.7
287.9528,315
288.0159,103.2
288.0248,195.3
288.0352,163.9
288.05,794.1
288.0586,818.4
288.0852,26.7
288.1063,182.2
288.1352,87.3
288.1555,8762.1
288.3112,324.9
288.3451,213.5
288.4098,84.3
288.4838,18
288.5018,190.3
288.7286,282.1
288.7613,116.3
288.769,3044.8
288.8478,156.2
288.8642,725.5
288.8893,1268.2
288.8969,4208
288.9041,6319.9
288.9058,6072.2
288.9202,10182.2
288.9233,9923.9
288.9294,11819.3
288.9347,9171
288.9389,14416.1
288.9441,18230.9
288.9503,19395.2
288.9581,21456.1
288.9682,26863.2
288.9776,21972.6
288.9835,19352.1
288.9907,15973.1
288.9988,12266.1
289.0047,11352.4
289.0155,3951.5
289.0311,36.6
289.0379,81.6
289.0445,23.4
289.0471,42.9
289.0525,36.6
289.0619,113.4
289.0826,183.1
289.093,85.5
289.1216,176.1
289.1589,467.3
289.4186,178.5
289.4642,106.2
289.5097,19.7
289.6224,231.7
289.7535,250.5
289.9073,84.3
289.9363,1340.6
290.0299,267.8
290.1334,22.4
290.1554,403.6
290.2457,433.7
290.2517,373.8
290.2881,167.8
290.5049,129.8
290.6059,663.1
290.772,997.7
290.7974,52.8
290.8097,18.7
290.8709,16.9
290.9139,135.1
290.9756,85.3
290.9939,72.2
291.0264,2210.4
291.0437,215.5
291.1021,152.3
291.1228,21.7
291.1309,304.8
291.2147,121.8
291.2458,19
291.2934,156.9
291.5014,390.5
291.5841,508.5
291.6346,202.4
291.7912,178.5
291.8094,624.6
291.8573,123.7
291.8735,161.8
291.9048,296.8
291.9572,99.2
291.9757,691.3
292.0516,174.9
292.0675,821.4
292.08,104.7
292.1033,587.7
292.163,171.9
292.2113,89.4
292.2186,101.6
292.3727,204.4
292.4105,104.2
292.424,1231.6
292.5145,173.7
292.5274,791.7
292.6406,365.6
292.8883,931.5
292.8973,716.5
292.926,18.5
292.9903,19.6
293.0721,2156.5
293.0982,247718.5
293.1789,3510.9
293.1972,113.1
293.27,706.9
293.3525,158.8
293.4451,20.4
293.6679,63.3
293.7848,222.9
293.8647,367.4
294.0157,298.1
294.0217,234.7
294.0253,814.2
294.0955,255.4
294.1016,20656.5
294.3182,327.9
294.4334,319.5
294.5796,566
294.6225,19.4
294.653,464.3
294.8396,130.4
294.9449,850.4
294.9905,158.8
295.0033,322.1
295.0302,1180.6
295.0678,195.2
295.1023,1097.8
295.1947,28474.1
295.2363,537.3
295.3477,197
295.6862,730.9
295.7946,273.4
295.823,119.9
295.8572,92.1
295.9311,113
295.958,917.5
295.9767,115.9
295.9808,103.3
296.008,665.5
296.0634,197.4
296.1042,602.9
296.1203,180.4
296.134,589.4
296.1638,194.4
296.198,1349.8
296.2889,512.1
296.3219,432.1
296.4276,269.9
296.5337,210.2
296.5752,154
296.7569,949.8
296.9358,478.8
296.9875,41.2
297.0473,21.5
297.1811,94.2
297.3921,516.4
297.4191,19.9
297.4624,149.5
297.5128,360.2
297.5147,440.6
297.5632,19.7
297.7401,443.2
297.8303,1040.4
298.0253,1523.6
298.0423,15890.9
298.0603,133.2
298.1103,76.8
298.1373,213.2
298.1848,111.7
298.2053,508
298.2838,118.6
298.3121,336.5
298.5232,398.2
298.5702,878
298.7853,227.7
298.9259,407.7
298.9277,489.8
298.9862,47.6
299.0457,380.3
299.0675,74.3
299.1394,3025.3
299.1958,1340.6
299.2524,181.7
299.2769,945.7
299.3786,20.7
299.5679,369.5
299.7441,24.1
299.9807,586
299.9897,20.2
300.0353,1421.6
300.0483,31.5
300.0753,292.9
300.156,18.5
300.1962,24.5
300.2647,409
300.2956,245
300.4824,649.2
300.4967,91.1
300.5104,209.2
300.5207,285.5
300.5266,103.4
300.605,61
300.6235,18.5
300.6799,490.4
300.7511,161.6
300.9295,395.6
300.9941,164.7
301.0119,54.9
301.0386,22692.8
301.0735,479.7
301.0906,845.4
301.1005,186
301.1414,217.5
301.2117,3986.9
301.2404,343.9
301.3269,398
301.3859,741.5
301.5268,16.8
301.5646,17.7
301.7235,149.7
301.8196,171.7
301.8763,345.3
301.9939,8350.7
302.0128,1194.6
302.0199,1004.4
302.0353,55.8
302.0512,293.6
302.064,3000.4
302.0731,24.4
302.0979,113.6
302.3355,19.8
302.3526,424
302.5011,503.9
302.626,186.8
302.6673,225.6
302.7278,871.1
302.7419,562.7
302.7522,582.3
302.8297,3438.6
302.885,20.2
303.0274,236.1
303.0674,265.3
303.1721,182.7
303.2219,143.4
303.3542,630.9
303.4501,18.3
303.5068,654.9
303.639,96.9
303.9705,585
303.9859,295.2
304.0298,17.2
304.06,85.4
304.2141,19.2
304.5347,72.4
304.5833,1405.1
304.6686,954
304.6826,88
304.8018,105.7
304.8132,23
304.8269,1238.8
304.833,315.3
304.9752,1320
305.0282,258.8
305.1909,438.2
305.3704,536.3
305.5651,107.6
305.5882,99.6
305.6114,280.8
305.6314,509.8
305.7082,18.5
305.8349,342.4
305.983,42
306.0952,74.1
306.1326,91.5
306.1491,441.8
306.3509,75.9
306.3807,16.2
306.5329,797.9
306.8414,53.4
306.8948,22.3
306.959,603.8
306.9775,1653.9
306.9901,377.4
307.0243,111.8
307.0718,94.8
307.2239,386.7
307.2612,742.3
307.3892,361.2
307.4408,87.2
307.4526,352
307.5367,1076.1
307.5977,21.9
307.6422,336.8
307.903,179.8
307.941,582.6
307.9563,740.1
308.0523,315.4
308.0956,191.4
308.2441,707.8
308.3504,746
308.3871,742.2
308.4048,101.3
308.4782,836.6
308.5472,225.9
308.586,221.5
308.5911,20.3
308.6339,515
308.6698,85.4
308.8082,158.8
308.8791,2791.3
308.9919,440.8
309.0065,193.7
309.0308,229.9
309.0373,1742.6
309.0412,1078.2
309.0825,334
309.1502,20.1
309.1705,306.7
309.3321,23.3
309.3613,99
309.4139,574.6
309.4444,224.1
309.4753,82.5
309.6541,243.5
310.0099,492.6
310.2037,484
310.2396,64
310.4069,257.6
310.487,301.9
310.5792,89.2
310.5924,72.3
310.8763,2870
310.9678,399.8
310.9932,580
311.0031,44.7
311.1607,259.1
311.1672,384.4
311.3457,547.6
311.3591,20.1
311.4849,673
311.5272,752.3
311.6161,163
311.7152,581.2
311.7252,186.8
311.7662,581.7
311.7819,106.1
311.8046,80.9
311.9684,106.1
311.9757,165.6
311.9992,42.6
312.0126,242.8
312.0194,259.7
312.0299,78.8
312.0407,1832.7
312.0514,327.7
312.1708,42.7
312.3908,82.1
312.4306,394.4
312.4393,465.6
312.6867,322.5
312.7449,22.4
312.7866,562.7
312.9063,98.5
312.9569,326.6
312.9759,115.9
313.0029,30.7
313.018,212.4
313.026,120.4
313.0526,117.3
313.061,57.3
313.1266,862.7
313.1875,181.2
313.2421,370.4
313.2741,48853.2
313.3016,162.9
313.537,706.5
313.5508,726.5
313.5972,221.4
313.6393,99.6
313.644,19
313.6702,542.3
313.7169,792.1
313.8425,110.2
313.9427,146.8
313.9978,545.2
314.0147,5456.3
314.0758,96.1
314.0911,81.9
314.1221,133.5
314.2774,5591.8
314.3406,20.4
314.346,440
314.4704,128.7
314.4773,813.7
314.5259,453.9
314.5682,161.7
314.606,19.4
314.7978,67.6
314.8369,5046.8
314.8549,173.9
314.9991,4537.6
315.0043,647
315.0181,468.6
315.0551,8865.5
315.062,3116.8
315.0662,15521.5
315.0696,17660.9
315.0801,7206491.5
315.0875,20567.7
315.0895,11706
315.0918,8012.2
315.094,5741.5
315.0963,5261.9
315.0983,4439.7
315.1003,4073.9
315.113,386.2
315.1611,3933.5
315.2253,20.2
315.3237,5216.9
315.4865,198.9
315.5037,20
315.5134,332.6
315.5719,259.4
315.5846,496.5
315.594,467.6
315.6246,174
315.7739,169.4
315.9287,19
315.966,322.4
315.9792,837.6
316.0106,160.8
316.0463,197.6
316.0695,558.5
316.0774,40059.8
316.0834,740466.8
316.1114,166.8
316.1266,818.1
316.2142,21.4
316.2351,338
316.2699,1060.9
316.2996,167.5
316.3082,318.5
316.445,120.4
316.6312,581.3
316.7972,41.7
316.8406,225.8
316.934,217.9
316.9652,108.8
316.9864,760.6
317.0563,794.1
317.0649,972.6
317.084,85848.2
317.1336,548
317.1802,364.4
317.2143,17.5
317.2757,796.2
317.4309,396.8
317.4685,466.9
317.5028,135.2
317.5624,386.5
317.6777,23.5
317.7131,82.7
317.8064,492.3
317.8148,21.2
317.8239,603.8
317.897,20.6
317.9281,204.3
317.9549,350.8
318.0181,209.1
318.0876,7225.7
318.1447,286
318.1889,1169.6
318.6217,19.1
318.7205,97.8
318.7924,697.7
318.8033,712.7
318.864,24.9
318.9074,592.8
318.9961,184.9
319.0096,21.2
319.0935,207.3
319.1167,395.3
319.1947,35028.2
319.2034,479.3
319.2492,19.8
319.3004,612.2
319.5172,477.9
319.6292,18.1
319.739,114.4
319.7696,225.6
319.8342,802.9
320.0339,699.4
320.0588,403.2
320.0746,94.2
320.198,3444.6
320.251,366.8
320.2588,1795
320.6303,422.6
320.7765,165.6
320.7935,26.1
320.801,456
320.8195,19.5
320.8308,82
320.9262,20
320.9483,500.2
320.9533,64.8
321.012,104.8
321.2103,60215.7
321.2617,45.4
321.3238,329.2
321.516,192.9
321.8162,27.7
321.8888,355.7
321.9468,149.3
321.9551,365.2
322.0074,390.4
322.2137,7812.7
322.2395,161.1
322.279,559.3
322.4314,395.9
322.4462,223.1
322.5059,126.1
322.5142,102.5
322.6272,183
322.6578,359
322.6638,63.9
322.7221,97.7
322.809,1729.7
322.8487,263.7
322.932,1073.4
323.0105,728.2
323.0206,10381.9
323.1607,20.5
323.2259,3923.1
323.2348,839.9
323.3922,199.6
323.457,796.9
323.8103,872.8
323.9626,144
323.9775,355.9
324.0017,9290.7
324.0112,398.9
324.061,770.6
324.3611,695.9
324.4941,269.5
324.4988,271.3
324.6671,1340.9
324.6753,6167.2
324.6845,5855
324.6969,120
324.7037,125.7
324.7636,100.6
324.78,778.2
324.8529,1602.1
324.8614,120.1
325.1258,18.1
325.2117,5059.8
325.3605,17.6
325.6699,375.3
325.7318,105.6
325.8942,142.7
325.9152,680.7
325.9603,25.9
326.0028,450.7
326.0183,92.6
326.036,179.1
326.0651,167.4
326.1836,979.5
326.2442,454.3
326.2837,119.2
326.6497,59.3
326.7252,117
326.7691,61.1
326.8102,80.3
326.8228,425.4
326.8504,2235.8
326.9188,979.2
326.9772,843.4
327.0152,3501.2
327.0961,134.2
327.2174,1537.3
327.2274,21124.1
327.2904,568
327.4432,703.5
327.474,99.4
327.6599,18.7
327.6723,269.9
327.8381,95.3
328.0472,135.3
328.2306,1678.8
328.4561,21.8
328.4828,1313.5
328.4916,644.4
328.5069,1090.6
328.5842,182.8
328.6963,21.6
328.7084,406.6
328.8477,446.8
328.8753,128
328.891,1019.9
328.9588,119.6
329.0867,368.6
329.096,2037.5
329.1828,592.5
329.4227,516.9
329.4376,117.2
329.4421,367.5
329.6188,252
329.6413,342.6
329.9432,22
329.9596,107.2
330.0452,20.1
330.0538,716.3
330.059,142.8
330.0685,21.2
330.2406,281.4
330.2551,126.2
330.3277,351.1
330.6862,235.1
330.8864,129.2
330.9876,125.6
331.0146,257.9
331.0452,86728.8
331.0541,858003
331.0785,597.5
331.0943,7259.4
331.8695,268.8
332.0254,66.3
332.0481,3835.3
332.0574,75088.7
332.5377,722.4
332.5561,132.1
332.6367,859.2
332.6857,97.3
332.7033,608.8
332.8086,22.3
332.8283,21.5
332.9613,497.3
333.0522,52378.6
333.0578,7602.7
333.1102,1024.1
333.1525,83.6
333.1783,65
333.2829,161.9
333.4233,186.3
333.4319,406.9
333.4481,315.2
333.4991,905.1
333.6517,157.6
333.9501,325.2
334.0183,19.1
334.0306,115.5
334.0554,3163.7
334.0607,188.3
334.0789,252.7
334.4367,168.7
334.5649,307.6
334.6098,186.9
334.6518,728.8
334.685,274.3
334.8368,23.6
334.8619,21.1
334.8795,982.8
334.9204,398.2
334.9842,182.1
335.0198,124.7
335.1672,1541
335.2361,18.2
335.267,17.6
335.3694,22
335.4215,102.9
335.5177,446.4
335.965,358.7
335.9788,120.4
335.9925,151.2
336.1331,96.9
336.645,822.1
336.696,217.6
336.9284,690.4
337.0362,12991.1
337.0497,22443.3
337.0621,562200.1
337.1273,189.8
337.183,1521.5
337.2742,7182.9
337.4114,100.9
337.5569,237.3
337.6124,104.7
337.662,121.3
337.968,619.2
338.0532,165
338.0654,51529.9
338.088,418.6
338.2055,157.7
338.2556,554.6
338.3368,560.1
338.342,27.1
338.371,93.3
338.537,393.6
338.5436,106.3
338.6405,999.2
338.6482,232.3
338.6602,434.5
338.8024,17.9
338.9209,1230.3
338.9708,152.2
339.0315,567.8
339.0382,2871.1
339.047,906.3
339.0657,4882.2
339.1884,197.4
339.1984,134.4
339.2511,2176
339.2778,190.3
339.2895,9675.7
339.3296,82.3
339.3342,286.1
339.3738,957.8
339.4655,18.8
339.5198,100.3
339.967,625.4
339.9756,714.4
340.0212,138.6
340.0369,685.7
340.2334,779.2
340.2399,565.5
340.2983,742.8
340.5203,177.9
340.5405,363.2
340.6238,151.5
340.704,365.3
340.7826,460.7
340.8093,421.1
340.8527,19.2
341.0183,55.8
341.087,514
341.2882,112.7
341.3054,4414.8
341.4332,149.2
341.4601,564.3
341.6899,362.3
341.8558,546.1
342.0152,8390.3
342.0646,811
342.0858,664.7
342.0932,20.1
342.1558,92.3
342.3989,214.9
342.5526,787.8
342.6649,934.7
342.8984,287
342.9066,18.6
342.9891,1176.6
343.0177,221.5
343.0685,166.2
343.1466,100.1
343.1695,251
343.1947,29746.6
343.3365,212.9
343.6935,19.5
343.7114,616.5
343.9467,520.2
343.9884,745.9
344.027,344
344.0611,22.1
344.1982,3946.8
344.239,572.1
344.4806,391.5
344.5947,85.5
344.984,20.6
345.2107,1666.9
345.2797,414.5
345.2897,113.5
345.4212,668.6
345.8932,18.1
345.9058,81.6
345.9292,225.7
345.9749,177.3
345.9838,43508.5
346.0094,112.2
346.0198,320.5
346.041,204.9
346.0553,20.4
346.088,569.8
346.2629,95.1
346.3106,400.8
346.5386,89.8
346.6858,18.4
346.7707,584.6
346.8113,97
346.9613,117.7
346.9725,427
346.9875,1448.8
347.0175,4260.6
347.0437,20.9
347.068,1512.9
347.2751,412
347.2906,104.4
347.482,139.8
347.5062,123.5
347.5748,139.7
347.8086,566.9
347.8798,153.8
347.9153,917.7
348.0205,106.9
348.1254,59.3
348.2319,278.8
348.3691,140.9
348.5593,168.8
348.8619,193.2
348.8993,96
348.9911,22.9
349.0178,1644.9
349.0331,113.7
349.1828,326.1
349.4993,177.6
349.5219,120.1
349.6862,841.7
349.7375,87.9
349.8954,162.6
349.994,424.9
350.0809,576.7
350.0938,619.8
350.442,762.7
350.4933,80.6
350.6828,1079.9
350.8295,437.2
350.9777,85.4
351.0129,323.2
351.1203,359.7
351.2785,121.8
351.4078,88.6
351.4546,189.3
351.6309,656
351.7592,778.7
351.9521,19.5
352.1261,981.8
352.1582,219.4
352.2171,324.6
352.2344,101.1
352.3893,801.1
352.6679,212.7
352.8953,485.2
353.0271,131805.5
353.036,200866.9
353.0765,601.1
353.1735,129.7
353.2176,258.1
353.267,1155.3
353.2919,412.8
353.4319,345.2
353.4534,493.2
353.4941,177.5
353.5387,327.9
353.5821,344.7
353.6383,136
354.0303,10261.1
354.0394,17572.4
354.1004,943.3
354.125,162.4
354.3113,162.7
354.5007,193.9
354.7864,173.2
354.8522,762
354.8948,998.1
355.0117,687.5
355.023,328.1
355.0343,11461.3
355.0704,831.6
355.0847,86
355.0965,355.8
355.2529,1111.5
355.3227,567.1
355.3431,130.9
355.3886,284.7
355.4262,598.5
355.4365,366.5
355.496,982
355.5675,80.6
355.5822,263.9
355.7261,153.8
355.8644,18.5
355.874,401.3
355.931,187.2
355.942,20.3
356.0145,28
356.0701,95.6
356.165,550.7
356.2704,162.2
356.2856,20.7
356.3589,20.1
356.4303,191.9
356.4711,321.4
356.9813,360.3
357.0087,332.9
357.021,138
357.0298,986.4
357.0668,74.6
357.1505,72.6
357.2833,16.7
357.4699,284.7
357.543,270.5
357.5682,98.3
357.6038,89.2
357.6781,1165.6
357.6863,567.4
357.7104,181.2
357.7185,343.3
357.8455,1095.3
357.8575,229.9
357.8859,220.7
357.942,170.7
357.9554,37.9
357.9776,1123.7
358.0342,393.9
358.0377,453.6
358.6059,335.6
358.7038,356.3
358.816,111.2
358.9046,399.7
358.9847,214.2
359.0075,149.4
359.0317,16293
359.044,414498.3
359.1669,1671.5
359.1841,95.8
359.1986,211.4
359.2634,164.7
359.3695,428.2
359.3929,77.5
359.4331,1723.2
359.441,760.9
359.448,453.5
359.4507,420.8
359.4658,166
359.4766,870.3
359.4862,107.9
359.5175,104
359.9445,223
359.9792,519.4
360.0473,34064.6
360.1281,22.1
360.2932,79.8
360.3051,88.2
360.3235,73.4
360.5278,201.2
360.8491,93.4
361.0202,6287
361.0292,287.2
361.0479,1362.6
361.1539,367.3
361.2741,3476.1
361.4299,89.1
361.4862,663.1
361.7604,417.2
361.8686,23.9
361.9577,11873.3
361.9823,235.7
362.0483,110.9
362.3264,153.8
362.4179,208.9
362.4845,303.7
362.6373,1052
362.6685,743.7
362.7805,107.1
362.8407,20.9
362.9271,880.3
363.0104,499.9
363.2511,191.8
363.3467,76.5
363.4185,62.5
363.7613,613.4
363.7905,19
363.9974,3115.6
364.0038,821.7
364.065,102.2
364.3361,136.3
364.4154,974.1
364.426,786.5
364.4321,214.6
364.6234,171.4
364.6906,88.1
364.9317,309.9
365.0685,203.6
365.105,386.3
365.1497,92.9
365.395,196.5
365.4105,1016
365.9863,94.4
366.0364,553.5
366.0934,517.6
366.1651,135.7
366.2553,170.5
366.2912,100.5
366.3392,248.1
366.352,445.7
366.4141,19.1
366.4608,278.9
366.6933,384.4
366.7848,107.1
366.8381,348.1
366.8544,941.2
367.0543,57.1
367.1213,2479.9
367.1682,23.2
367.1944,2299.2
367.2471,166.4
367.2732,360.5
367.2966,21.1
367.3071,535.4
367.4639,148.6
367.6232,153.2
367.8892,317.8
367.9354,157.5
367.9918,2313.3
368.0024,609.9
368.1124,85.6
368.1513,407.3
368.1968,1007.8
368.2394,174.2
368.7376,754.5
368.8709,507.7
369.0006,12396.3
369.01,6217.9
369.12,398.4
369.1324,264.6
369.2101,297.3
369.352,26.2
369.6844,929.7
369.9437,20.5
369.9791,19.8
369.9962,405.9
370.0495,343.8
370.1751,177.8
370.1865,509.3
370.2547,969.7
370.2716,297
370.3224,715.7
370.3496,750.7
370.4763,139
370.5399,590
370.6354,383.7
370.7049,225.1
370.8664,857.6
370.9143,99.4
370.9802,459.9
370.9999,2257.8
371.0391,783.3
371.0575,94.6
371.0653,82.5
371.1853,22.8
371.2236,102
371.6042,937.8
371.7461,100.2
371.786,206.1
371.8651,177.1
372.0954,115.9
372.4878,102.8
372.5482,197.1
372.9951,277
373.2983,83.3
373.3782,90.7
373.6686,842.2
373.9079,269.4
373.9504,756.3
374.1932,391.1
374.3138,628.5
374.406,833
374.4414,106.2
374.6701,439.7
374.7428,1065.5
374.8487,626.9
374.913,345.4
374.9257,207.1
374.9476,144.6
374.9762,642.6
375.0091,142676.7
375.018,108603.6
375.1776,896.9
375.1813,916.9
375.4018,23.3
375.4711,553.3
375.6139,80.2
375.6779,302
375.7027,509.2
375.7448,350
375.7979,292.4
375.8212,641.1
375.8412,133.1
375.8768,103.7
375.9392,21.8
375.9569,167
375.9646,26.5
376.0123,9759.2
376.0213,9408.6
376.2448,636.2
376.2935,719.5
376.3134,2130.2
376.4901,265
376.5152,289.9
376.5256,622.3
376.7191,412.3
376.7624,419.7
376.8117,489.9
376.8716,570.5
376.896,21
376.994,1932.2
377.0163,5040.3
377.05,415.5
377.2661,393
377.437,154.4
377.8156,387.2
377.8224,630.1
377.8677,882.9
377.9719,463.8
377.9989,130.6
378.0084,168.9
378.0225,182.6
378.2913,205.8
378.3344,129.5
378.8521,727.8
378.924,108.7
379.0025,260.1
379.4298,143.2
380.024,346.4
380.1616,126
380.3111,231.7
380.3167,725.9
380.4316,75.7
380.4899,19.9
380.5353,421.1
380.6275,102.5
380.6523,733.2
380.7039,312.1
380.75,193.6
380.8733,102.8
381.0136,27852.9
381.026,259885.5
381.1277,414.3
381.4328,604.7
381.4621,348.7
381.4961,90.1
381.9404,898.6
382.0292,20425.8
382.1582,531.6
382.2314,18.1
382.2929,193.7
382.3885,180
382.4785,416.6
382.5909,70.1
382.7823,296.1
382.8292,182.3
382.8373,22.1
382.9521,21.8
382.9828,329.5
383.0106,518.2
383.1163,271091.8
383.1478,126.5
383.172,640.7
383.2243,209.9
383.4931,849.8
383.5989,265.7
383.9657,1572.7
383.9845,97.1
383.9902,68.1
384.1197,27017.6
384.1719,87.2
384.1876,19.1
384.2431,533.6
384.3224,135
384.3787,86.9
384.4949,152
384.6752,221.1
384.8094,498.8
384.9733,1192.5
385.2731,100.2
385.5932,173.5
385.7353,359.6
385.8913,114.7
385.9239,136.9
385.9791,11327.5
386.0555,85.5
386.2775,108.9
386.315,938.7
386.8608,189.2
386.9753,267.3
387.0024,526
387.0615,401.4
387.1756,96.9
387.197,814.5
387.2071,99.7
387.2383,62
387.4964,162.3
387.93,199.7
387.9782,1227.8
388.0092,673.7
388.0628,783.1
388.1006,930.5
388.3822,398.9
388.5227,927
388.6365,526.7
388.6708,426.8
388.7122,726
388.7289,19.5
388.7764,95.7
388.7945,676.3
389.0384,97.6
389.1107,23.3
389.1248,367.4
389.2436,164.2
389.3089,100
389.3906,788.1
389.4582,1460.6
389.6767,401.1
389.7654,785.8
389.8257,196
389.9253,523.8
389.934,681.4
389.9736,48703.1
389.9832,386.2
389.9928,23.3
390.0713,142.4
390.1218,214.8
390.1287,393.1
390.2094,131.9
390.2968,300.4
390.4118,94.8
390.6305,179.1
390.655,108.5
390.7081,468.4
390.7984,1531.2
390.9113,192.3
390.9229,624.1
390.935,875.8
390.9542,90.5
390.9743,9758.1
390.9827,25482.6
390.9919,11456.2
391.0014,368
391.0424,121.1
391.0554,19.7
391.2685,97.2
391.4442,652.4
391.4726,614.3
391.6207,159.2
391.7611,236.6
391.861,296.3
391.9878,504.2
392.002,151.5
392.0425,153.7
392.1072,141.9
392.128,314.9
392.293,91.4
392.3011,589.8
392.3948,741.9
392.408,378.5
392.5928,915
392.6547,125.7
392.7957,1931.7
392.8411,421.9
392.9673,237
392.9817,3498.8
392.9886,339.6
393.298,27.2
393.3342,19.4
393.449,302.3
393.9326,165.9
394.0434,377.4
394.2919,19
394.4175,84.6
394.4283,542.7
394.531,297.6
394.5518,108.5
394.5992,92.4
394.7743,1092.5
394.8516,592.6
394.9533,182.9
395.1994,194.8
395.2163,594.4
395.419,114.9
395.5264,411.9
395.5702,370.8
395.6372,99.3
395.6531,429
396.0266,209.5
396.0563,631.4
396.2519,21.1
396.2669,613.6
396.2883,204.9
396.403,182
396.4323,951.1
396.6037,253.7
396.9911,177813.7
396.9999,75552.4
397.1407,22
397.2006,337.6
397.2288,437.6
397.2371,151.5
397.4923,213.4
397.9077,584.6
397.9732,111.3
397.9945,11401.9
398.0034,3041.7
398.052,401.8
398.0812,450.3
398.1205,109.7
398.2043,597.5
398.2417,4583.9
398.4231,18.4
398.7208,20.3
398.7293,361.9
398.7403,702.6
398.7617,1400.3
398.8233,769.8
398.8353,182.1
398.9058,60.1
398.9848,120.8
398.9984,1692.9
399.0067,295
399.3488,710.5
399.3948,876.7
399.52,112.1
399.8967,622.3
400.1981,585.3
400.2187,473.9
400.2726,784.9
400.3959,113.3
400.479,189.2
400.7378,685.4
400.8284,665.7
400.873,123.6
400.9008,94.4
400.9131,94.3
401.0034,299.5
401.1624,95.8
401.2298,154.6
401.239,210.7
401.3021,248.2
401.322,329.8
401.4023,110
401.5042,655.2
401.6835,633.1
401.7216,18.2
401.8708,573.2
401.9527,1966.5
401.9769,340.7
402.1737,169.3
402.2039,20.1
402.2484,149
402.3718,71.8
402.4699,174.6
402.7888,21.3
402.9428,22
402.9746,91.8
403.0079,259671.3
403.2496,165.6
403.2755,381.4
403.2869,850.7
403.2968,137.2
403.4057,96.1
403.6496,224.9
403.6683,316.8
403.7244,599.3
403.8972,244.4
403.9424,1263.2
403.9529,108.7
403.9895,146.8
404.0112,20594.5
404.0274,413.1
404.0964,226.9
404.129,332.3
404.2331,178.7
404.56,320.3
404.6749,449.5
404.7673,415.6
405.0131,412.4
405.4458,74.3
405.9474,26655.7
406.1982,96.1
406.2512,124.9
406.2928,85.4
406.329,1101
406.5766,595.1
406.6321,371.9
406.6626,1062.3
406.7734,1401.2
406.7923,98.2
406.8273,165
406.9539,1018.9
407.2248,152.2
407.3322,64.9
407.3768,96
407.4896,71.2
407.5854,295.8
407.7092,221.3
407.8455,208
407.9461,295.4
407.9539,110.7
408.0372,216
408.1127,116.4
408.1696,106.1
408.2464,574.6
408.6645,135.1
408.6911,252
408.77,1347
408.9841,2930.9
409.2797,663.7
409.3668,99.8
409.511,371.8
409.6317,19.6
409.7123,344.3
409.8981,462.8
409.9279,551.2
410.1546,164.8
410.3117,183.9
410.4467,300.2
410.4595,552.1
410.5004,424.9
410.7739,760.3
410.9677,124.6
411.2154,825.6
411.2272,594.2
411.2408,91
411.2633,1326.7
411.2762,693.9
411.2945,147.2
411.4213,878.2
411.5717,19
411.5852,60.1
411.6084,301.4
411.6765,187.1
411.7634,804.3
411.8935,166.5
411.9596,18.7
411.9822,630.4
412.0134,158
412.0705,145.4
412.3213,1956.3
412.3972,164.9
412.4269,151
412.4415,81.1
412.524,407
412.5413,282.7
412.613,178.2
412.6416,108
412.703,117.7
412.7176,457.7
412.8049,100
412.9024,84.9
412.9645,43691
412.9737,11758.4
413.0892,323.8
413.1929,19.6
413.2664,3984.4
413.3243,168.9
413.3894,352.2
413.5634,65.2
413.5849,97.3
413.626,187.8
413.7675,130.5
413.8199,352.9
413.8342,404.8
413.8516,103.4
413.9281,314.7
413.9394,209
413.9677,968.5
413.9776,105.4
414.2138,18.8
414.2707,314.8
414.3464,18.2
414.4686,535.9
414.7154,415.5
414.775,129.8
414.964,959.8
414.9981,1015
415.2218,499.4
415.2797,938.4
415.4375,410.2
415.742,777.1
415.8794,17.3
415.9115,162.1
415.9839,128.5
415.9947,288.1
416.1352,18916.3
416.2142,33118.2
416.3059,373.3
416.3181,466.7
416.713,463.8
416.7613,63.4
416.7708,332.9
416.8161,277.8
416.9602,1111.3
416.9734,223.4
417.0401,304.6
417.1021,118.8
417.2171,3116.8
417.4233,169
417.4868,22.8
417.5486,870.6
417.5744,359.2
417.7161,239.8
417.7711,84.5
417.827,436.5
417.8415,18.9
417.9273,148.4
418.0159,462
418.1353,91
418.3161,18.8
418.4381,163.7
418.7272,426.7
418.7997,764.7
418.8436,142.1
418.9708,481.7
418.9819,90544
419.0324,24.2
419.0771,97.9
419.143,565
419.1857,86
419.2109,424.5
419.2561,1633.3
419.756,172.7
419.7804,433.7
419.8733,125.1
419.9539,22.9
419.9853,5751.6
420.4195,83.4
420.5237,408.2
420.9282,1128.8
420.9565,667.2
420.9798,2488.6
421.1035,24.5
421.2269,142.1
421.2925,182.6
421.3948,287.7
421.7428,20.2
421.7684,398.7
421.7935,101.4
421.8537,464.6
421.8932,298.1
421.9214,7683
422.099,141.1
422.1583,17.2
422.1943,104.4
422.3042,20.3
422.4596,844.4
422.5437,156.2
422.5815,509
422.9202,219.3
422.9811,326.5
423.1362,548.8
423.1596,144.2
423.1787,400.5
423.287,19.4
423.9034,696.9
424.0877,174.2
424.3137,100.4
424.5326,19.8
424.6651,377.1
424.6774,462.6
424.7537,591.7
424.9559,24.9
425.0301,20.4
425.0753,373.1
425.1532,105.8
425.1831,218.1
425.2375,75.3
425.3109,130.4
425.4929,657.1
425.7139,20.6
426.1623,687.4
426.3694,181.5
426.3913,774
426.4007,191.6
426.4172,433.6
426.4417,20.9
426.6239,110.9
426.6934,191.8
426.9418,62.8
427.0716,253.4
427.1105,747.5
427.1583,1470.6
427.1986,199.2
427.7734,20.2
427.9352,1225.2
428.5451,117.6
428.5955,982.2
428.8869,89.6
428.9375,9484.9
428.9731,356
429.0378,491.3
429.0426,514
429.0694,1636.1
429.089,795.3
429.17,104.7
429.5658,100.9
429.6568,464.7
429.9414,98.2
429.9506,203.8
429.9731,167.8
430.1631,174.6
430.2239,346.3
430.3474,175.8
430.4887,365.8
430.6434,188.6
430.6688,419.9
430.7056,89.9
430.8752,19
430.9138,1042.3
430.9366,100.7
430.9421,155.8
431.0861,18.7
431.1235,196.4
431.2023,176.2
431.2169,5608.3
431.2424,700.8
431.2647,262.2
431.2731,94
431.3649,262
431.4769,397.5
431.5663,236.2
431.6382,214.5
431.693,170.4
431.9498,120
432.201,301.5
432.915,773.9
433.06,222.7
433.2502,75.4
433.2555,61.1
433.2576,63.2
433.4445,325.2
433.5473,326.4
433.9463,125
434.0138,23.9
434.2278,98
434.3034,344.2
434.5568,418
434.7058,105.9
434.956,14836.1
435.0018,264.4
435.0879,407.3
435.2082,233.3
435.2805,719.8
435.8489,20
435.9584,479.9
435.9925,73.9
436.2797,189.8
436.4024,166.7
436.6011,22.1
436.8968,549.6
436.9539,593.9
436.9609,654.6
437.0204,19.7
437.2044,1993.1
437.406,242.5
437.5255,525.7
437.5625,195.9
437.6115,101.7
437.6967,84.7
437.786,186.9
438.196,4932.3
438.2622,1071.6
438.3161,19.9
438.8977,797
438.9137,342.3
438.9722,2872.5
438.9845,10153.8
439.1404,469.3
439.3413,291.1
439.4905,244.3
439.6583,201.1
439.7485,544.5
440.0724,559.2
440.2813,443.6
440.4096,608.8
440.4267,165
440.7257,860.3
440.7479,209.6
440.8824,796.4
440.9559,774.4
440.9818,226.2
441.0108,21.7
441.2368,2708.6
441.2976,159
441.4623,360.2
441.8111,644.5
441.862,171.7
441.9759,19.9
442.0542,191.8
442.1804,978.8
442.7672,546.3
442.9001,89.2
443.131,710.6
443.2144,431.4
443.253,1844.9
443.3281,21
443.4322,162.6
443.4712,113.1
443.5329,119.8
443.554,18.4
443.6796,353.9
443.7748,212.6
443.8141,114.8
443.9405,107.4
443.974,25.5
444.1661,92
444.6542,67.6
444.7554,454.4
444.8517,427.7
444.8983,567.3
444.9123,122.3
445.0443,98
445.2326,2992.3
445.2683,524.2
445.3178,119.6
445.4204,269.1
445.4529,551.5
445.701,639.7
445.8651,166.5
446.2814,96.1
446.3404,400.9
446.5747,141.1
446.6211,176.9
446.6719,979.4
447.4107,111.3
447.5234,583.9
447.7734,114.6
447.8372,156.1
447.9322,5436.1
448.0559,693.5
448.2505,171.3
448.4767,427.4
448.6397,113.8
448.752,33.7
448.8123,880.1
448.9321,1779.5
449.1545,2791.6
449.247,224.1
449.3246,101.9
449.339,223
449.424,93.6
449.4348,56.1
449.6658,380.1
449.732,207.1
449.7566,201.5
449.7927,83.8
449.9296,556.6
450.1577,487.9
450.1998,618.4
450.2462,230.9
450.3805,660.6
450.4158,648
450.6374,117.9
450.7404,19
450.7542,378.5
450.8464,89.2
450.9289,1022.7
450.9734,353.2
451.1197,164.8
451.1503,130.8
451.4632,826.2
451.5742,58.8
451.6441,189.7
451.8301,100.2
451.8768,732.2
452.1742,102.4
452.2231,565.1
452.3998,167.7
452.4262,615.4
452.5032,114.9
452.5849,87.6
452.6482,105.9
452.7521,17.7
452.7665,576.9
452.8097,20.1
453.0232,176.5
453.1732,1926.6
453.5503,18.6
453.6523,108
453.6886,376.3
453.9672,120.8
454.0214,20.1
454.2405,125.2
454.2763,104.7
454.4251,538.7
454.7891,154.1
454.9318,467.6
454.9498,45186.7
455.3125,483.9
455.3374,172.2
455.3908,926.1
455.7764,877.9
455.8292,159.5
455.9535,1229
456.1521,130.3
456.4763,81.7
456.6702,516.3
456.7399,392.6
456.9134,712.2
456.947,9941.3
457.2333,13522
457.3898,230.9
458.2362,2584.7
458.4206,472.2
458.6973,883.2
458.782,576.5
458.9322,218.7
458.9597,1353.2
459.0156,630.1
459.1179,737.4
459.2485,533494.2
459.3763,227
459.7301,377.6
459.7759,18.9
459.8964,296.3
460.18,121.6
460.223,23
460.2518,111131.3
460.2771,242.7
460.2961,118.9
460.4097,127.8
460.5895,151.5
460.682,95.4
460.6935,391.4
460.7213,568.9
460.7523,24.2
460.9665,83364.8
461.0488,173.5
461.2554,9738.2
461.315,345.1
461.3434,498.9
461.4164,110.1
461.5164,721.2
461.5956,405.5
461.6884,145.7
461.9701,3857.9
462.0049,94.2
462.3779,104
462.5716,18.8
462.6066,208.1
462.7234,671.6
462.8166,675
462.9637,24809.4
463.0298,341.2
463.0633,104.7
463.0752,356.6
463.1079,19.1
463.2925,270.7
463.3336,174.4
463.3754,376.6
463.609,181
463.6588,68.4
463.8212,205.2
463.906,1726.7
463.9672,440.6
464.3596,98.7
464.3757,232.3
464.5677,130.5
464.9784,7113.1
465.0981,375.9
465.1185,20.4
465.1357,686.5
465.2903,133
465.4812,25.5
465.5182,506.6
465.7369,108.6
465.9037,98.7
466.0099,125.7
466.1504,352.7
466.5517,655
466.7285,487.6
466.9151,18.2
467.0316,382
467.0559,371.7
467.2653,917.1
467.2965,953.9
467.4302,822.1
468.0452,16.9
468.2444,373.3
468.2617,181.4
468.3093,2446.4
468.3406,126.3
468.8218,150.4
468.8335,264.2
468.8696,89.5
468.9814,319
469.1159,19.9
469.1476,1424
469.2285,106.4
469.3001,551.3
469.3406,21.2
469.4098,101.9
469.531,19.1
469.6499,794.7
469.6818,168.8
469.9462,536.3
469.9584,65.4
470.415,18.7
470.4754,1000.9
470.612,228.3
470.9235,15846.9
470.9827,934.7
470.9959,1029
471.0147,369.5
471.0538,312.1
471.2849,1967.2
471.38,20.2
471.4039,21
471.5466,417.5
471.8191,133.9
471.9274,619.8
471.9658,86.8
472.0653,360.9
472.171,329.1
472.533,744.3
472.6229,580.1
472.8178,20.4
472.8837,125.2
472.9087,143.9
472.9208,4738.6
472.9941,1137.7
473.0201,96.1
473.0322,384.8
473.0509,1574.7
473.1475,400.5
473.2637,5257.2
473.357,683.1
473.4304,311.1
473.5809,457.7
473.6419,147.2
473.989,177.4
474.0676,108.8
474.0954,104.4
474.2598,608.9
474.3301,209.1
474.3607,22.3
474.4991,20.3
474.7838,393.3
474.8597,777.9
474.923,594.9
475.1248,936.3
475.1399,138.7
475.2027,419.5
475.2223,25843.8
475.2428,452
475.3258,18.5
475.4122,642.5
475.5039,355.7
475.7669,596.2
475.944,141.9
476.0887,44.6
476.1253,330.3
476.2255,2609.5
476.3134,992.8
476.5328,434.1
476.6566,252.2
476.9131,303
476.9405,45156.1
477.0802,95.2
477.4532,413.8
477.5703,630.4
477.884,96.9
477.9438,1390.1
477.9808,97.9
478.0984,703.5
478.1962,203.9
478.3293,61695.3
478.4158,25.1
478.5868,91.6
478.8797,138.1
478.9379,11101.2
478.9567,19.3
479.0041,488.4
479.0959,239.8
479.1571,833.6
479.3326,12199.1
479.37,140
479.6451,184.3
479.7554,410.6
479.9408,909.8
479.972,321.7
480.0385,579.4
480.0747,19.1
480.1521,106.3
480.2401,93.8
480.3427,952.7
480.3455,1018.3
480.3673,18.1
480.384,396.4
480.4264,392.8
480.7235,596.9
480.9365,463.6
480.9521,1805.5
481.0915,1840.1
481.2032,485.4
481.2333,2497.5
481.3445,364.6
481.4277,260.7
481.6354,378
481.8828,866.2
481.9104,568.5
482.0952,273.5
482.3167,777.3
482.3293,145.4
482.3596,1791.7
482.651,127.3
482.7213,170.5
482.7347,172.5
482.8001,105.4
482.9525,100.3
483.0688,87.6
483.0867,58.8
483.1825,171.9
483.2485,111850.6
484.0016,530.5
484.2517,24012.1
484.5645,178.5
484.9541,95.3
485.2641,158615.2
485.3772,779.2
485.8701,26.3
486.0739,364.8
486.2674,30188.2
486.2959,426.8
486.8148,814.8
486.8561,349
486.8975,1793.4
486.9691,2123.4
487.1108,194.9
487.1922,323.6
487.2797,111908.6
487.3386,340.8
487.3505,394.5
487.4258,560.7
487.4384,84.2
487.4913,69.5
487.5577,366.7
487.6026,497
487.8225,856.7
487.8934,324.8
487.9357,369.4
488.283,24603.3
488.3254,573
488.3613,20.6
488.631,608.5
488.689,115.3
488.7112,196.6
488.8363,793.7
489.0573,19.3
489.1067,112.9
489.1353,20.2
489.1704,22.8
489.2229,191.6
489.2352,346.8
489.2865,918.6
489.3026,1598.3
489.3257,144.8
489.3549,3035.3
489.3708,257.6
489.5134,684.8
489.9974,159.3
490.0122,105.9
490.0592,182.9
490.2375,280.8
490.2907,9591.5
490.4242,137.1
490.5536,176.2
490.6543,298.7
490.6674,111.2
490.6958,21.5
490.7851,102
490.8862,107.8
491.3455,627.4
491.3711,4135.7
491.6018,528.6
491.6159,177.5
491.7525,1007
492.092,156.3
492.6839,366.9
492.9145,7608.9
492.9881,490.2
493.473,127.8
493.5179,429.9
493.5616,762.5
493.7228,464.8
493.9017,733.1
493.9587,138.1
493.9687,748.5
494.1721,665.1
494.2337,85.2
494.3246,8101.3
494.7513,101.7
494.9126,678.8
494.9667,614.5
494.9792,661.4
495.0552,297.7
495.1462,24.6
495.3302,746.5
495.4603,91.1
495.7457,112.8
495.8147,104.1
495.9188,369.9
496.34,556070
496.9307,451
497.3433,131787.3
497.4174,231.4
497.5141,20.9
497.5352,104.9
497.633,20.4
497.6523,759.5
497.6918,392.2
497.7485,22.6
498.2841,148
498.2935,17.6
498.3063,647.2
498.3466,10955.2
498.3951,585.8
498.408,319.1
498.5175,378.6
498.5847,106
498.8437,460.9
498.9242,334.6
499.2223,2898.8
499.2557,19.6
499.3384,452.3
499.6309,203.3
499.6877,266
499.7801,176.8
499.8384,644
499.9376,365.5
500.2914,344.1
500.5094,107.6
500.8069,188.8
501.2216,515.9
501.2376,6397.2
501.2599,852.8
501.3887,120.6
501.479,360.4
501.4998,430.1
501.5683,759.8
501.6732,858.5
501.7615,251.9
501.9187,188.6
502.0053,640.7
502.1049,353.5
502.2234,276.8
502.2414,758.8
502.3291,11914.5
502.5564,385
502.5975,472.6
502.8536,101.4
502.8712,443.5
502.9038,25
502.9926,597.5
503.0379,20.8
503.0682,416.7
503.1071,131.8
503.226,173.3
503.2539,6397.1
503.3168,134.2
503.3339,1566.1
503.3829,341.3
503.4315,22.5
503.6459,370.3
503.7748,84.6
503.8067,880.5
504.0418,603.7
504.1069,199.8
504.3066,4766.3
504.3443,14079.2
504.7479,176.1
504.8655,768
505.2327,1594
505.2622,100.8
505.3103,951.7
505.3476,318.7
505.5319,827.1
505.7618,946
505.7817,96.2
505.8065,114.5
505.8174,460.6
505.8712,562.4
505.8917,768.5
506.2402,208.9
506.2625,1406.8
506.2956,482
506.3603,9943.8
506.4305,363.2
506.5146,201.7
506.621,17
506.6548,526.8
506.8261,98.9
506.8929,1717.9
506.9003,1468.9
506.969,94.8
507.0984,333.5
507.2484,65236.2
507.2936,715
507.3476,94.4
507.3654,827.8
507.4896,203.6
507.8325,264.2
507.8887,214.7
507.9415,21.3
508.2277,310.5
508.2521,12977.9
508.3765,3355.1
508.7887,20
508.8886,2535.8
509.0049,4534.1
509.1012,89.1
509.264,13165.4
509.4781,168.9
509.5876,23.2
509.6933,191.1
509.9571,763.1
510.0545,224.1
510.2666,1199.9
510.3552,6014.3
510.4335,92.6
510.5573,18.5
510.6539,780.6
510.7492,109.3
510.8418,648.7
510.8738,120.6
510.8842,387.2
510.9062,139.4
511.1246,45.6
511.4565,151.7
511.5332,18.3
511.569,191.2
511.8299,179
511.8899,534.1
511.9702,426.8
512.088,734.6
512.1184,136.1
512.1487,341.5
512.335,259
512.7247,983.9
512.9084,18183.6
513.0249,20.2
513.1575,115
513.4273,755.8
513.5652,162.6
513.7334,386.5
514.2043,20.6
514.9054,10157.3
515.2093,106.1
515.2952,321
515.3071,315.1
515.3739,824.9
515.4811,96.9
515.7028,25.8
515.8412,113.8
515.999,107.8
516.3063,24506.8
516.4232,108.4
516.8612,208.5
516.882,200
516.9209,2008.2
517.0379,93.2
517.3097,2212.7
517.3813,274.8
517.397,63.7
517.8106,431.7
518.015,20.1
518.0312,163.6
518.2096,1010
518.2687,274.6
518.3219,971239
518.4348,146
518.5974,336.1
518.7204,258.3
518.8369,1022.8
518.9252,28845.3
519.133,98.8
519.3253,222146.5
519.3606,20.3
519.3814,1000.5
519.8114,88.3
519.9291,715.2
519.9895,191.4
520.175,144.4
520.2041,162.4
520.28,894.8
520.3289,22308.3
520.3398,103537.6
520.3759,196.7
520.5324,205.3
520.5922,183.8
520.9224,18302.1
520.9952,102.7
521.0277,21
521.3313,2043.6
521.3432,22719.1
521.4861,18.7
521.6277,665.8
521.7165,108.4
521.9769,1037.8
522.0944,95.5
522.3207,159.2
522.3556,174346.7
522.3818,204.4
522.6552,80.9
522.9197,728.8
522.9373,4810.6
522.9681,177.8
523.0817,379.6
523.1345,954.6
523.2217,1028.8
523.2611,120.3
523.3589,44075.4
523.7833,316.8
523.9961,592.3
524.1135,551.2
524.1226,216.9
524.249,136.7
524.3056,109.2
524.3712,158266.5
524.8275,150.4
524.9554,295.4
525.145,189.1
525.3746,39318.9
525.4727,391.4
525.6007,84.7
525.7098,565.7
525.8836,223
526.0484,201.6
526.3289,11688
526.7357,342.1
526.8838,209
526.9822,943.5
527.1228,128.4
527.5006,373.5
527.9825,111
528.4308,164
528.8556,847.5
528.8826,7835.9
528.9549,1370.3
529.1244,619.3
529.6199,659.1
529.6385,786.3
529.8729,697.9
529.9186,937.2
529.9906,465.6
530.0496,173.5
530.3219,1468.5
530.3588,1549.9
530.6679,534.6
530.6963,21.1
530.8138,95.4
530.8789,3805.2
530.899,245.1
530.9212,103.5
531.249,9489.1
531.4093,188
531.9744,567.6
532.0901,221.5
532.252,1148.4
532.2801,6140
532.3379,15090.7
532.5918,199.3
532.6431,877
532.9665,2962.7
533.0687,95.7
533.2639,823.2
533.3413,973.6
533.516,20.8
533.5857,396.6
533.6901,718.5
533.7601,613.8
533.9488,203.7
533.9654,624
534.143,220.6
534.1739,442.9
534.2727,116.8
534.2959,225777.6
534.3177,701.1
534.8768,207.3
534.8992,17179.5
535.0524,342.7
535.195,216.8
535.2993,49651.7
535.5973,168.8
535.6544,815.7
535.7173,164.3
535.7909,354.1
535.8486,715.3
535.859,20.3
535.9024,515.5
535.9772,130.7
536.0072,19.3
536.1033,125.1
536.2941,10395.3
536.5898,122.6
536.8964,10004.5
536.9738,132.8
537.0298,196.2
537.167,227
537.1734,143.6
537.2977,2182.5
537.3456,72.7
537.3972,19
537.5552,812.2
537.6216,192.1
537.8466,237.2
537.9522,258.2
538.0561,287.6
538.3614,59.6
538.4739,414.2
538.4882,1105
538.511,243.5
538.7118,208.3
538.8952,714.6
538.9113,1332.7
539.2392,685.5
539.2793,377.9
539.5536,446.4
539.7181,171.3
539.9567,96.7
540.0012,173.6
540.0931,764.7
540.1794,88.4
540.248,22.5
540.3059,1804
540.6561,781
540.7049,275.1
540.7411,594.6
541.1379,203
541.1642,20.7
541.2307,289
541.463,144.4
541.509,597.2
541.6191,245.8
541.9518,656.7
542.322,177728.9
542.4611,1165.6
542.7555,19.2
542.9518,703.4
543.05,230.1
543.169,172.4
543.254,344.2
543.3253,43774
543.5976,673.9
543.6285,731.4
543.9468,857.2
543.9803,548
544.0734,99.9
544.2249,191.7
544.2737,2149.8
544.3378,304965.3
544.4611,836
544.4754,220
544.6084,169.4
544.6539,285.2
544.9275,834.8
544.9481,1376.8
544.9922,21.6
545.1827,96.9
545.3413,74897.9
545.394,428
545.4112,144.7
545.4533,752.3
545.4729,527.4
545.5535,200.7
545.6308,163.1
545.6878,61.8
545.7294,216.9
545.9187,118.3
546.0755,166.5
546.1596,228.8
546.3532,258069.5
546.5435,236.3
546.5668,147.4
546.9597,401.9
547.0676,291.6
547.3568,67090.6
547.6064,472.1
547.8383,521.5
547.8899,264.9
548.1572,353.4
548.2264,354.6
548.3115,2615.2
548.3595,6471.4
548.6111,64.7
548.8153,198.3
549.049,159.2
549.1801,161.1
549.6759,87.7
549.7125,1044.2
550.1866,64.7
550.2916,483.3
550.3168,812.2
550.3305,107.9
550.3556,690.2
550.3874,187.1
550.4282,171.1
550.5166,423.5
550.7306,113.4
550.8729,2980.9
550.9866,214.7
551.1762,21
551.5445,237
551.8996,247.9
552.057,542.1
552.1967,387.2
552.3159,231.4
552.3621,558.9
552.5366,445.8
552.688,398.8
552.7729,1363.5
552.8702,903.5
552.9241,153
553.0539,169.6
553.3137,22.7
553.5117,56.1
553.6806,206.8
553.8605,124.7
553.9449,597
554.4537,863.9
554.6992,218.6
554.9556,198
555.1484,111.9
555.2316,254.8
555.2462,81.1
555.3604,17.5
555.6298,194.9
555.7064,647.9
555.806,405.6
555.9378,782.5
556.0653,948.6
556.3742,830.7
556.4277,320
556.6451,864.8
556.6792,1055.6
556.8012,655.3
556.945,62.6
557.0833,235.4
557.1486,242.1
557.3976,130.5
557.4573,875.7
557.4915,172.9
557.9533,622.5
558.1039,187.8
558.2959,39242.2
558.3538,17.1
558.3601,18.2
558.6954,18.5
559.1126,178.8
559.2163,802.6
559.2993,8263.5
559.3993,541.7
559.4298,85.7
559.4693,725.1
559.4722,741
559.6657,161.7
559.826,147.1
559.9555,429.9
560.0386,1080.7
560.3116,65795
560.3304,166.3
560.4641,210.9
560.5074,448.3
560.6158,23.2
560.8717,209.9
561.0574,205.2
561.274,106.7
561.3148,13511.1
561.354,585.2
561.4128,6055.2
561.4386,19.7
562.091,287.2
562.3272,49270.1
562.3701,107.7
562.4156,754.6
562.5741,966.4
563.1432,683.1
563.3306,15125.9
563.3527,747.6
563.4288,5224.6
563.8968,60.5
564.0984,164
564.3064,3214.8
564.3262,1030.6
564.4951,136.4
564.6484,399.8
564.7902,786.9
564.8736,261.9
565.0176,482.1
565.0671,564.7
565.3098,2031.2
565.9126,767.2
566.0956,547.4
566.215,128.3
566.322,94688.9
566.3748,316.3
566.3923,22.9
566.4446,126.6
566.5171,158.1
566.5915,1079.5
566.8465,765.7
566.9691,327.8
567.0007,522.6
567.0148,879
567.1192,186.9
567.1344,428.7
567.3255,21588.1
567.5401,61
568.0272,630.7
568.2299,424.4
568.3381,26192.1
568.3524,278.6
568.3967,126.3
568.9026,385.6
568.9588,138.6
568.9826,22.2
569.0287,368.3
569.3406,2502.4
569.465,614.8
569.6163,248.6
569.9292,360.9
570.4318,1096.9
570.8666,5867
571.0342,772.9
571.0583,511.1
571.3701,360.9
571.7223,511.2
571.7552,96.3
571.9474,105.8
571.9619,445.9
572.0904,129.9
572.1308,463.2
572.2595,127.3
572.2692,20.1
572.3701,992
572.7376,351
572.827,481
572.8491,638.5
572.8644,5463.9
573.0041,662.3
573.3076,101.5
573.4525,20.1
573.5496,212.5
573.6518,151.5
573.7262,459.7
573.8615,1209.9
573.9483,466.2
574.0033,915.6
574.2023,99.2
574.3083,133
574.8401,340.7
574.8601,580.4
575.0477,178
575.2248,397.3
575.2437,107.1
575.4649,923.7
575.5039,2942.6
575.9238,150.4
575.9526,199.5
576.0076,114.1
576.208,71.9
576.2808,10091.5
576.4245,757.3
576.4868,392.6
576.4925,379.9
576.5051,396.1
576.5358,704
576.7049,472.6
576.8838,9770.9
577.0921,140.1
577.2098,95.8
577.2831,599.8
577.5187,1971.5
577.6762,97.2
577.693,117.2
577.7556,17.9
577.8861,467.5
578.1731,448.4
578.2106,310
578.2764,601.8
578.2898,189.1
578.3229,193.5
578.8808,8413.2
578.9153,320.9
578.9866,18.1
579.0251,167.6
579.2597,227.1
579.3738,477.9
579.5795,674.1
579.6006,525
580.2803,70.6
580.2871,162.6
580.2958,141.7
580.3463,98.1
580.4314,20.3
580.6014,96.4
580.8645,163.3
580.8781,1065.2
580.8956,2730.5
581.0127,214.5
581.1744,119.6
581.4278,784.3
581.548,443.5
581.6961,672.9
581.883,430.7
581.9955,647.5
582.0263,1178
582.0581,131.7
582.1281,120.8
582.1486,643.2
582.154,666.8
582.1601,602.5
582.179,169
582.2258,936.9
582.2433,1314.6
582.2515,1173.6
582.2959,18218.2
582.3798,110.5
582.412,22.9
582.5878,250.7
582.8958,1210.9
583.2553,1818.8
583.2993,2895.8
583.4644,141.3
583.4951,406.1
583.5509,74.9
583.98,73.6
583.9899,23.6
584.225,481.3
584.3115,6024.9
584.5297,109.7
584.62,241
584.7061,102.1
584.8334,780.9
585.0051,629.5
585.0535,489.7
585.2709,7730.6
585.3132,906
586.0245,679.5
586.1153,18.6
586.2767,365
586.3095,4009.4
586.8416,2956.4
586.9128,1008.5
586.9996,213.4
587.1103,116.8
587.2422,189.1
587.2821,405.1
587.312,498.3
587.396,495
587.5324,56.1
587.9554,451.7
588.1649,800.2
588.1786,124.1
588.7499,576.9
588.8381,2903.5
588.898,582.1
588.9867,106
589.3656,19.4
589.4224,18
589.5637,694.3
589.5767,197.2
589.7124,96.1
590.061,21.9
590.3224,14226.5
590.5361,114.2
590.5831,146.8
590.81,124.8
590.8351,427.9
590.8814,97.3
590.9221,403.2
591.2061,93
591.2601,268.3
591.3228,1470.2
591.337,106.7
591.5585,948
591.6853,180.7
591.8092,433.1
591.8991,388.6
592.0169,98.4
592.0412,21.8
592.1934,665.1
592.2561,538.7
592.3377,1067.9
592.4955,172.8
592.8279,294.5
592.858,6132
593.0263,105.2
593.0612,247.2
593.0983,384.7
593.1246,434.2
593.1468,793.8
593.5338,90
593.573,106.6
593.8747,111.4
593.9277,379.5
594.0723,896.9
594.1679,742.9
594.6439,551.6
594.8548,5642.6
595.1079,19.2
595.1524,175.3
595.435,605.7
596.1918,895.8
596.3489,219.7
596.4552,562.6
596.5935,705.3
596.6105,431.3
596.6715,632.8
596.7579,182.3
596.8524,1334.9
597.4501,5046.8
597.4852,3204.6
597.7313,84.3
597.7602,472.3
597.875,128
597.9686,22
597.9877,208.9
598.0571,144.1
598.3338,21.4
598.4532,1421.5
598.4673,330.7
598.4706,365.4
598.5768,127.8
598.9777,145.5
599.3232,446
599.4671,3695.3
599.5025,5865.7
599.9319,402.6
600.4746,492.2
600.5079,515.9
600.6699,392.1
601.212,27.6
601.3786,464.3
601.4404,251.4
602.0504,194.4
602.1483,686.8
602.2739,726.3
602.2955,3003.9
602.7996,164.7
603.1116,190.5
603.288,878.9
603.4181,793.9
603.534,187.1
603.5883,596.4
603.6301,23.4
603.7927,456.8
604.0673,903.9
604.1571,183.9
604.169,600.6
604.312,1148.8
604.4786,24.8
604.5658,336.7
604.8422,456.6
605.1513,172.3
605.3653,441.9
605.457,136.6
605.6319,434.3
605.9584,381.6
605.9916,665.1
606.0803,473.1
606.2964,2007.4
606.4524,407.6
606.6327,72.5
606.7433,69.9
607.1703,432.4
607.6149,307.8
607.9848,632.4
608.0738,399.9
608.5496,510.2
608.8322,1688.9
608.9345,240.9
609.0145,646.4
609.0747,122
609.1702,103.3
609.1989,156.1
609.5061,964.4
609.6261,20.7
609.7961,237.1
609.8689,73.9
610.0018,269.1
610.0495,115.3
610.2704,567.8
610.4416,415.4
610.5304,646.8
610.8298,556.1
610.9718,293.6
611.0861,1070.6
611.1139,264.7
611.2425,439.8
611.2705,908.2
611.305,652.5
611.4593,113.5
611.6711,20
611.8345,449.6
612.2862,187.8
612.3263,1064.1
612.7488,22.6
613.1189,565
613.5371,676.1
613.9221,585.9
614.08,394
614.1724,160.7
614.3453,732.1
614.4147,327.9
614.8504,159.3
615.4595,1465.9
615.8169,17.3
615.8401,137.8
616.0653,175.3
616.1365,742.1
616.2586,227.5
616.2908,147
616.49,668.1
616.584,422.9
616.8797,657.1
617.4752,14688.7
617.7254,177.6
617.7719,252.4
617.8308,652.6
617.8881,127.9
618.0312,22.1
618.123,299.3
618.4785,5136.5
618.5993,198.1
618.8752,107.7
619.3063,251.4
619.4912,14010.6
619.5404,580.9
619.6126,321.5
620.013,404
620.0371,98.5
620.2874,809.9
620.3348,90.8
620.3924,21.2
620.4539,332.9
620.4944,3720.7
620.5255,282
620.595,802.5
620.6376,189.6
620.8302,18.8
621.0222,120.9
621.4528,3521.6
621.4861,13163.4
621.8163,190.6
621.8816,482.4
621.9679,125
622.3652,635.5
622.4069,645.7
622.4551,184.6
622.4884,2428.4
622.5495,422.9
622.7913,789.3
622.8947,818.4
623.1357,11154.8
623.2028,162.2
623.2826,372.6
623.4823,211.8
623.5016,2416.8
623.9468,135.1
624.0803,450.5
624.1388,535.3
624.4456,809.8
624.4792,297.7
624.8595,236.8
625.1701,18.9
625.2414,113.8
625.4836,527.3
625.5156,624.7
626.5055,213.7
626.6753,113.4
627.3504,239.4
627.5342,1189.8
627.6314,688.1
627.9099,323.8
628.2083,123.8
628.3976,624.8
628.5381,136.8
628.6328,70.1
629.1527,19030.5
629.2723,18.4
629.4762,536
629.9665,101.4
630.1562,1851.4
630.2363,142.9
631.5407,159.4
631.8853,153.8
632.0566,269.1
632.1691,285.6
632.3524,1269.3
632.7078,582.4
632.747,108.5
633.0237,112.6
633.4691,190.5
633.975,348.6
633.9904,483.3
634.0321,413.3
634.413,77.9
634.4488,130.6
634.5325,227.6
634.5757,119.5
634.6238,268.7
634.795,229.8
634.8418,1670.6
634.914,160.4
634.9925,99.4
635.0876,101.6
635.2456,162.6
635.4546,913.9
635.4727,96.4
635.614,95.4
635.7047,715.8
635.8538,422.5
636.0004,929
636.1836,569.8
636.2515,616.9
636.3723,559.5
636.3984,199.3
636.6091,101.4
636.8399,3047.8
636.8658,573.4
636.98,85.6
637.0907,350.6
637.2791,263.9
637.431,226
637.5986,18.9
638.0777,22.1
638.1007,108.4
638.4532,884.9
638.4847,351.4
638.5197,28.9
638.8362,941.7
639.4476,114.6
639.5442,595.4
639.7637,531.4
639.9917,369.2
640.1894,571
640.5088,89.9
640.6102,129.5
640.6673,149
640.9281,119.3
641.6644,18.6
641.8154,81.6
642.0056,841.4
642.3613,226.1
642.7846,101.1
642.9098,210.1
643.0444,591
643.1888,738.5
643.2938,765.1
643.5286,22
644.0699,1060.4
644.1909,173.3
644.1983,233.4
644.2033,226
644.3915,448.6
644.5431,1176.9
644.7979,453.3
645.0322,797.1
645.0717,21.6
645.1174,7736.9
645.3041,159.9
645.322,642.9
645.4623,349.1
645.4856,1155
645.6889,105.5
646.0537,173.8
646.12,452.2
646.1242,475.6
646.3049,527.1
646.8661,411.8
647.025,427.9
647.0947,170.1
647.488,709.7
647.4934,742.6
647.5125,858.7
647.63,400.2
648.0279,445.9
648.1237,806.7
648.2025,170.3
648.2797,151.1
648.3851,4516.7
648.4254,681
648.4512,175.6
648.9877,99.7
649.3879,509.1
649.4652,20.1
649.4813,874.1
649.5164,207
649.9323,116.6
650.1698,218.8
650.3322,198
650.4388,881
650.6669,430.7
650.7803,536.9
650.8166,1340.3
650.8324,226
650.8711,200.8
651.037,433.3
651.1346,27065.6
651.465,650.7
651.6307,104.5
651.8064,246.4
651.93,670.4
652.1384,5134.3
652.3543,156.1
652.5307,403.3
652.6462,190.9
652.8133,1525.6
652.8953,149.7
652.9768,88.1
653.1378,124.8
653.3975,353.5
653.4776,386.3
653.5457,174.7
653.9209,424.9
654.0392,138.2
654.4122,99.5
654.66,843.9
654.6848,1080.1
654.7138,412.9
654.7398,950
654.7929,586.6
654.8101,727.8
655.5746,594.4
655.881,315.2
655.9416,320.9
656.1261,23.6
656.2823,191.1
656.4803,88.5
656.6617,347.2
656.8384,169.3
657.0765,64.3
657.3957,327.2
657.554,280.6
657.9269,522.3
658.29,293.3
658.4299,1339.3
658.6762,155.1
658.6887,226.5
658.7539,117.9
658.8966,74.8
659.0047,440.2
659.0206,114
659.0368,108
659.0737,316.3
659.1555,706.6
659.2732,858.2
659.4377,971.4
659.4835,190.7
659.8516,452.7
660.0821,1371.6
660.1019,1031.7
660.2584,95.7
660.4419,1705.6
660.6209,778.9
660.6583,19.6
660.8652,108.4
661.0821,3651.4
661.128,22.5
661.2436,20.3
661.391,490.5
661.5132,365.4
661.7798,82.5
662.0879,110.4
662.2849,19.9
662.4351,200.9
662.5552,367.4
662.6877,203.5
662.8516,267.4
662.9444,121.7
663.0056,1047.9
663.4575,1133.1
663.623,867.2
663.8409,714.2
663.9002,85.8
664.2526,314.6
664.2911,790.6
664.4695,3352.5
664.5086,202.2
664.537,114.7
664.646,96.6
664.7166,648.6
664.7663,91.3
665.1614,247.7
665.187,118.6
665.3626,633
665.9632,142.3
666.3177,373.7
666.4837,9246.2
667.0993,17934.9
667.2688,118.7
667.3478,569.3
667.4602,19.4
667.9117,109.5
668.1038,814.7
668.2659,739
668.7004,109.9
668.7849,649.9
668.9787,133.7
669.0751,122.2
669.1047,179.4
669.1928,398.7
669.3564,323.7
669.5336,580.8
669.7382,219.3
669.8961,95.9
669.9563,730.8
670.2827,364.4
670.4268,754.9
670.4801,100.3
670.496,187
670.9523,169.1
671.46,115.4
671.5477,254
671.6277,701.3
671.8685,139.2
671.9282,1008.1
672.3527,649.7
672.4219,3364.4
672.445,1151.6
672.8685,521.7
673.1167,49261
673.1689,868.7
673.3913,93
673.7345,21.7
673.771,229.2
674.1203,10187.9
674.4773,19
674.8285,177.1
674.8338,218.7
674.8453,169
674.9017,18.8
674.9199,327.3
674.963,801.9
675.0915,343.9
675.4684,260
675.5438,15510
675.5731,105.5
676.004,164.9
676.0471,3773.4
676.1484,445.5
676.3451,411.4
676.4166,2257.4
676.4973,404.1
676.547,2692.6
676.5847,270.9
676.8873,166.4
677.0523,204.6
677.0857,269.1
677.415,865.9
678.0688,333.7
678.309,195.5
678.4752,947.8
678.6161,228.1
679.125,457
679.1594,220.6
679.1834,115.2
679.5747,18.2
679.7842,776.6
680.055,784.2
680.6353,21.8
680.9767,122.4
681.2792,999.6
681.5264,492
681.5745,1028.5
682.0645,9110.8
682.0994,351.6
682.1168,261.9
682.2295,185.5
682.6175,353.9
682.972,134.1
683.0095,191.7
683.0341,620.5
683.0646,1658
683.1211,70.2
684.4592,880.3
684.4882,144.4
684.5475,196.6
684.7533,169.3
685.0716,126
685.436,13049.4
685.6282,192.4
685.6343,221.7
685.6396,202.5
685.7849,155
685.9896,254.6
686.4392,3623.3
686.4965,18.1
686.8993,624.1
687.2148,113.1
687.6289,436
687.66,621.1
687.7646,22.5
688.4173,882.9
688.6979,697.7
688.7306,502.8
688.8885,742.2
688.9984,95
689.081,16467
689.1163,83.7
689.5598,3418.8
689.9992,461.6
690.0313,171.2
690.0853,1108.8
690.3849,662.1
690.4669,744.8
690.5635,3261.9
690.8195,107.1
691.0116,341
691.0623,287.1
691.1805,884.5
691.3387,986.9
691.551,400
691.6608,198.5
692.1697,19
692.5031,727.8
692.7553,676.3
692.8035,659.5
693.1522,375.9
693.2738,130.2
693.3297,248.1
693.8746,154.4
694.144,729.4
694.5036,20
694.7548,105.3
694.9107,663.7
695.0986,36506.1
695.2088,649.2
695.4372,222.7
695.5098,2482.8
695.9409,196
696.0725,449.2
696.1025,5199
696.5632,425.9
697.0702,156.2
697.492,158.9
697.5261,26696.9
697.5908,24.3
697.7826,87.4
698.0292,2626.4
698.2371,19
698.2697,147.9
698.53,9539.9
699.0315,246.4
699.0767,22.9
699.2421,434.3
699.284,388.2
699.3493,413.2
699.5318,2042.4
699.7999,406.4
700.0499,245.3
700.5935,1214.2
700.6745,177.1
700.7124,276.3
700.7973,132.4
700.9662,67.9
701.1543,1027.6
701.2879,133.4
701.4091,1281.6
701.5057,261.6
701.5597,40133.3
701.7695,96.9
702.0846,237.1
702.3424,3816.3
702.5144,684.6
702.563,12962.7
702.6737,162.7
702.7131,221.6
702.7874,73.2
703.0399,100.8
703.1789,601.8
703.3456,967.1
703.4942,25.8
703.5755,102777.2
703.6175,425.7
703.7314,71.9
703.9675,84.6
704.0462,6921.8
704.1173,411.9
704.1795,382.5
704.2924,176.9
704.4479,2394.2
704.5193,616
704.5787,36916.4
704.6041,638.8
704.9494,163.4
705.0438,816.3
705.5813,5143.4
705.6602,924.6
705.8094,249.1
705.8379,773
705.926,463.8
706.0532,90.1
706.0673,538.6
706.1743,546.9
706.5394,1931.9
706.5689,165
706.593,537
706.6172,623.2
706.843,697.4
706.9039,196.6
706.9583,218.7
707.5446,666.7
707.7629,416.3
707.7823,580.9
708.4221,297.6
709.2728,429.6
709.5671,227.1
710.1865,23.2
710.3155,172.2
710.777,662.6
710.9142,103.9
711.0634,10568.6
711.0733,12069.3
711.1059,217.7
711.4007,731
711.5417,6024
712.0601,105.3
712.195,708.3
712.4634,167.4
712.5447,823.3
712.7707,381.7
713.0882,565.3
713.4153,89.8
713.4999,3745.5
713.7021,551.7
713.7707,444.6
714.0036,282.1
714.19,251.9
714.302,18
714.3259,702.6
714.4038,686.1
714.4106,676.2
714.4345,970
714.5092,622.6
714.7113,71.8
714.9726,163
714.9913,199.6
715.169,116.1
715.2711,238.8
715.7663,770
715.8682,178
716.2764,151.8
716.418,646.4
716.44,614.2
716.4752,96.9
717.0805,20880.4
717.4737,931.8
717.8275,592.6
718.0836,1044.2
718.3251,818.5
718.4579,96.1
718.5208,138.2
718.7266,213.8
719.0436,591.1
719.2397,370.2
719.6127,602.2
719.6505,467.8
719.7354,101.5
720.0214,1673.1
720.4213,862.4
720.5685,20.4
720.7186,293.6
720.7678,18.4
720.7915,521.7
720.8334,165.7
720.9154,516
721.4782,41886.6
721.509,308.5
721.6542,119.8
721.9891,343.6
722.0321,359.9
722.1639,111.8
722.4817,17754.2
723.4099,159.5
723.4948,13469
723.5416,52655.5
723.7982,148.3
723.943,23.1
724.0362,1078.9
724.1673,370.2
724.2472,219
724.2772,424.3
724.377,100.8
724.4982,4111.3
724.545,18587.5
724.624,925.7
725.0318,282.1
725.2032,661.9
725.3257,100.8
725.5576,110018.5
725.6984,652.7
725.9994,24.2
726.0284,4738.5
726.1665,567.7
726.3467,23.1
726.4506,158.6
726.5607,45942.5
727.0261,856
727.0489,572.8
727.5634,4709.7
728.0243,97.9
728.0852,836.4
728.4065,18.5
728.5211,3508.3
728.5767,63.6
728.6539,661.9
728.7949,20.3
728.9826,170.8
729.358,1018.8
729.5909,14910.8
730.0136,760
730.1994,143.9
730.4293,344.1
730.5387,6051.6
730.5952,4477.9
731.007,625.9
731.1728,542.6
731.3758,565.1
731.4865,1077
731.5408,465.4
731.6074,7454.7
731.8551,107.8
731.9525,65.1
732.0961,329.2
732.5544,49341.6
732.6104,2565
732.6587,21.1
732.8526,335.2
733.0437,7085.8
733.0557,6305
733.0862,23.5
733.1516,133.1
733.2936,286.7
733.4311,194.6
733.4888,132.8
733.5576,18449.9
733.6115,174.8
733.7359,1915.6
733.7881,21.9
734.0627,258.7
734.5709,7663.5
734.9761,132.9
735.0444,134.3
735.1868,543.7
735.285,434.6
735.5723,1628.6
735.6881,104.8
735.7335,92.6
735.8396,110.7
735.9815,117.7
736.1851,588.2
736.567,57.8
736.7278,19
736.9149,771.7
737.1316,149.6
737.239,249
737.3819,546
737.453,6196.3
737.4782,105.6
737.7534,96.4
737.8345,1078.1
738.1675,90.5
738.5769,100.1
738.6367,108.1
738.7442,441.6
738.829,93
739.0627,12242.3
739.1288,694.9
739.2006,129.4
739.3529,434.3
739.4699,116
739.5148,3989.5
740.067,203.9
740.1925,113.7
740.3577,907
740.5189,1292.7
740.8469,123
740.9015,917.5
741.0325,121.8
741.5318,11500.5
741.8338,198.5
742.0025,748.1
742.067,198.6
742.3648,98.4
742.5334,2149.9
742.5745,5673.7
742.7429,69.1
742.9225,544.9
743.0097,213.8
743.4637,3708.4
743.5492,818.7
743.5808,965.9
744.2992,242
744.4673,891.5
744.5228,98
744.554,1737.9
744.5912,5330.9
744.7456,159.9
745.0658,386.7
745.1462,330
745.4781,55997.5
745.5281,160.2
745.5955,565.9
745.8603,108.5
746.2896,405.9
746.4818,18574.4
746.57,3389.7
746.606,832.9
746.6306,1146.8
746.8475,113.8
747.1693,412.3
747.495,6925.3
747.6101,197.7
747.6609,426.5
747.8116,144.4
747.9656,176.3
748.0108,1120.3
748.0799,632.1
748.4019,171.7
748.4981,335.5
748.5244,193.1
748.935,1011.9
749.02,1174.4
749.5091,4119.1
749.8894,102.7
750.0102,389.3
750.4773,101.5
750.6326,655.3
751.0194,743.9
751.1751,365.3
751.1949,458.9
751.2918,116.8
751.5736,13705.6
751.9675,22.2
752.0732,924.8
752.5208,9259.6
752.5748,1809.3
752.7119,129.2
752.7574,404.3
753.3145,142
753.3523,127.7
753.4382,451
753.5248,892.3
753.5892,4667.6
753.6183,894
754.0788,203.7
754.1133,127.9
754.2467,265.6
754.3715,356.9
754.4583,259.5
754.5368,46878.7
754.9189,404.2
755.0294,2190
755.279,461.5
755.4851,949.4
755.5399,18595.2
755.9313,352.1
756.1845,843.4
756.2719,123.8
756.5543,43338.3
756.6121,19.3
756.6902,605.9
756.7835,833.8
756.9577,107.9
757.5106,309.3
757.5576,17038.2
757.6221,2697.8
757.7047,104.6
757.7842,502.5
757.9401,549.2
758.4169,68.2
758.5351,18.7
758.5701,757593.9
758.6251,1189.4
758.6722,142.6
759.1563,941
759.3206,18.7
759.3602,256.8
759.3844,188.9
759.4563,352.8
759.5735,338290.8
759.6386,2037.9
759.7215,158.3
760.1591,858.1
760.4632,677.4
760.5864,425316.6
760.6405,773.7
760.6697,452.2
761.0442,4259
761.0916,307.9
761.1771,118.5
761.3482,910.2
761.4521,6709.7
761.5893,191199.9
761.6508,114.5
761.7362,1686.2
761.84,781.4
761.9207,138.3
762.0453,1307.5
762.1818,390.5
762.3988,413.9
762.4557,759.5
762.4735,176.7
762.5923,41868.9
763.2082,162.2
763.4566,412.1
763.5708,497.7
763.5949,1861.2
763.6296,460.7
763.6541,584.7
763.7002,1063.5
763.7226,510.9
763.8249,121.3
763.8495,129.2
763.8926,616.3
763.97,112.3
764.215,333.1
764.3162,460.5
764.3628,61.6
764.5219,69
764.5553,562.2
764.7693,747.4
764.8758,1397.6
764.9466,234.7
765.1157,111.8
765.2649,255.7
765.5617,1333.6
766.1609,405.8
766.4616,520.8
766.5358,3540.3
766.575,39379.8
766.7898,1197.9
767.4376,238.5
767.578,17575.2
768.0288,203.1
768.5536,10496.7
768.591,52840
769.1426,675.4
769.4785,7504.5
769.5578,1696.4
769.5942,24153
769.7518,166
769.9327,997.1
770.1771,690.6
770.2287,733.5
770.2917,22
770.5096,5610.4
770.5712,2472.2
770.6089,4264
770.7498,95.6
770.9909,2943.7
771.0138,996
771.4952,3728.9
771.6113,527.1
771.6569,205.3
772.1265,502.2
772.2317,225.6
772.3057,573.7
772.3704,963.2
772.4488,241.7
772.4686,144
772.5861,10195.2
772.785,672.4
773.0032,189.7
773.5087,4609.1
773.5893,1612.3
773.6527,116.9
774.2639,876.1
774.5762,317.1
774.6014,1591.1
774.6788,212
774.7055,336.3
774.7689,516.2
774.804,21.9
774.9344,91.9
775.0076,643.1
775.0265,875.4
775.1594,126
776.0606,150.7
776.1031,665.5
776.2104,287.3
776.2914,366.8
776.3495,381.2
776.5208,7352.7
776.799,661.2
777.0088,4730.7
777.5168,385.2
777.5448,1377.3
777.6223,198.4
777.7598,462
778.018,606.6
778.1935,65.1
778.3014,747.6
778.4319,20.8
778.5367,35346.4
779.5408,10726
779.6774,73
779.9477,443.9
779.9659,65.7
780.2031,153.6
780.5523,637352.8
780.5917,683.2
780.7681,294.9
780.8052,116.1
781.2216,747.9
781.5558,287262.5
781.6696,173.7
781.6782,170.4
781.9639,458.8
782.0295,435.1
782.272,127.7
782.5698,1101923
782.8233,218.2
782.9298,114.2
783.0268,4811.5
783.1211,270.7
783.3069,181.3
783.4167,2383.7
783.5731,515627.3
784.5872,250502.9
784.6888,131.5
785.1274,649.4
785.237,65.2
785.5016,502.4
785.5898,116143.6
785.6538,7260.6
785.6814,105.5
785.8543,301.3
786.5404,1083.7
786.602,220896.5
786.6582,1291.3
787.3296,147.2
787.5487,744.8
787.6051,104544.5
787.6708,915.7
787.7479,626.8
787.8519,18.4
788.1364,912
788.557,19254.4
788.6049,13786.1
788.6199,22296.1
788.675,925
788.7129,19
788.7718,183.1
789.0295,507.2
789.4403,158.3
789.4792,464.3
789.499,195.8
789.5592,3488
789.5916,2198.9
789.6214,11341.1
789.9017,96.1
790.4814,427.4
790.5378,1385.7
790.5733,39604.5
790.6243,540.1
790.679,59.6
790.8935,1116.4
791.1505,244.4
791.2236,19.7
791.417,844.4
791.5768,10513.4
791.9098,484.7
792.5522,1731.3
792.5909,17486.5
792.9819,1303.8
793.2221,89.6
793.5947,3627
793.9088,20.9
794.1674,97.3
794.1819,202.6
794.2056,1265.2
794.5095,1107.3
794.5687,3483.1
794.6067,52430.3
794.6449,425.5
794.9155,269.3
795.1805,18.4
795.5716,1226
795.6098,23379.3
796.0159,108.7
796.283,226.7
796.3876,368.2
796.4148,688.7
796.5261,103254.6
796.5856,16489.4
796.6244,6501.6
796.7528,150.3
797.2041,96.4
797.2952,94.6
797.5295,44792.3
797.59,3338.9
797.6259,1065.6
797.7992,17.9
797.96,454.3
798.0364,524.9
798.1112,103.7
798.2925,1242
798.3407,2033.4
798.45,218
798.5426,48893.1
798.6054,979.4
799.001,380.3
799.2684,24.8
799.3672,346.9
799.545,21548
799.6693,1216.7
800.5511,890.9
800.9179,96.5
801.0489,111.1
801.1856,608.6
801.2043,70.4
801.2451,710.5
801.2578,497.7
801.3227,149.5
801.3941,95.9
801.6141,94.5
801.9684,653.4
802.3671,105.1
802.5364,72545.7
802.6937,112.5
802.7926,140
802.9204,801.1
803.5398,31657.3
803.656,187.3
803.7343,886.7
804.0549,295.6
804.4062,569.4
804.5522,656559.6
805.1824,1073.1
805.1987,369.1
805.27,405.7
805.4212,775.8
805.5555,300352.1
805.7649,254.9
805.9035,181.8
806.2888,202.6
806.4738,456.7
806.5698,362752.3
806.8002,509.7
807.0315,486
807.1646,831.9
807.5398,792.9
807.5728,184727.5
807.6407,130.3
807.8664,134.5
808.0614,481.1
808.1573,715.5
808.1904,102.6
808.2931,953.7
808.3673,352.4
808.4969,97.7
808.5856,252109.8
808.9842,766.4
809.2151,1187.7
809.5886,126771.2
809.6529,182.5
809.7564,154.1
809.7958,208.9
810.543,274.4
810.602,242212.8
810.9924,321.1
811.3395,247.8
811.605,126345.3
811.6696,8980.2
811.7927,253.8
811.8697,206.4
812.1197,1477
812.2742,2562.2
812.4975,68.8
812.6033,13607.4
812.6205,23244.1
812.6734,3273.5
812.9504,20.4
813.238,1504.6
813.2643,322.9
813.5537,1106.1
813.6219,12395.5
813.6857,8965.1
813.8791,918.8
813.9068,446.4
814.0474,779.5
814.1426,170.2
814.4701,101.1
814.52,19.3
814.5726,7698.5
814.6242,314.1
814.6894,3369
814.7368,856.8
814.7826,172.7
815.0744,176.3
815.2646,187.4
815.3568,119.6
815.4411,194.8
815.5206,105.6
815.5752,2858.5
815.8959,171.9
816.0358,191.4
816.1284,595.9
816.195,22
816.4715,767.5
816.5368,18.2
816.5886,29557.2
816.8595,708.6
817.1254,263.9
817.1989,442.1
817.429,145.6
817.5462,641.1
817.5918,11193.7
817.8394,18.7
817.9735,385.4
818.5106,10519.5
818.5681,6378.3
818.6058,2492
818.8448,228.3
819.1168,670.6
819.1479,586.2
819.5138,2788.6
819.5358,621.5
819.5699,710.1
819.61,736.8
819.798,551.2
820.0485,658
820.526,113932.4
820.5865,830.1
820.6224,432.2
820.7684,17.2
821.2111,534.1
821.5293,56090.5
821.6207,192.6
821.6782,126
822.5432,25626.9
822.7848,552
822.8657,1034.3
823.5451,8055.3
823.6917,163.5
823.8199,581.9
824.0239,691.2
824.1406,762.6
824.381,293.8
824.5096,109.6
824.5582,18498.6
824.7684,1118.2
824.8021,2541.7
825.1453,710.4
825.2693,859.2
825.4343,756.3
825.5612,7212.5
826.5377,2999.6
826.5653,170.7
826.711,157.3
826.8257,1000.1
827.0394,60.7
827.1286,950.8
827.3199,169.1
827.4361,427.6
827.5699,253.9
827.8598,114.7
827.8948,216.4
828.0142,313.5
828.5149,21.6
828.5521,165430.8
828.9088,21.3
828.951,288.3
829.5555,73414.5
829.6615,148
829.9047,22.1
829.9475,1267.2
829.971,677.4
830.0768,181.6
830.1568,533.5
830.3136,782.7
830.4317,20.3
830.4913,213.8
830.5687,101675.8
830.7401,74
831.2853,835.8
831.5716,50511.2
831.7637,1318.1
831.9761,161
832.2047,1533.9
832.3304,96.1
832.4648,105.4
832.5843,137693
832.7479,776.2
832.7695,136.3
832.9943,121.4
833.05,360.5
833.2854,222.9
833.3566,695.7
833.4858,844.4
833.5873,70212.9
833.6515,568.2
833.6774,572.6
833.7003,696.7
834.0315,23.6
834.0572,1311.3
834.1341,121.4
834.4094,575
834.4218,884.2
834.4324,986
834.6022,42571.2
834.6555,994.9
834.8064,21.6
834.8634,700.8
834.9181,751.2
835.5724,675.1
835.6049,21085
835.6672,832.9
835.7466,398.9
835.7688,1042.3
836.3359,697.7
836.4495,1139.9
836.5028,149.9
836.5352,531
836.619,3830.9
836.6745,422.7
836.8053,728
836.9944,264.2
837.0515,378
837.1779,611
837.2265,129.2
837.2895,129.7
837.6205,444.7
837.9349,591.8
838.2196,656.8
838.3808,1016.7
838.4882,104.5
838.5111,1130.1
838.6049,864.2
839.1691,112.1
839.2553,218.5
839.3538,1618.3
839.6013,115.6
840.1143,166.9
840.7091,18.9
840.9282,453.3
841.0004,132.6
841.2522,403.1
841.5009,358.4
841.6203,66.3
842.0179,581.9
842.2011,407.7
842.4082,98.7
842.5474,127.8
842.987,711.3
843.2267,99.7
843.297,543.2
843.5131,406.8
844.2169,358.7
844.269,1561.6
844.418,971
844.4362,773.2
844.4621,390.2
844.4875,713
844.5263,29399.2
845.092,852
845.189,546.5
845.2111,464.6
845.3125,110
845.4202,642.5
845.5297,10384
845.5823,665.3
845.725,173.7
845.7532,197.4
845.9881,776
846.0209,635.6
846.2259,839.5
846.4836,24.2
846.5422,13662.6
846.5734,833.3
846.6084,543.7
846.7821,372.4
846.8733,697.1
847.5449,2202.2
847.6329,542.2
847.6502,622
847.842,1683.7
847.9159,538
848.1351,138.9
848.1549,110.3
848.3281,185
848.3946,379.3
848.5579,20521.4
848.7071,474.3
848.932,453.7
849.345,18.3
849.5609,7449.9
849.8707,786.8
850.2918,471.7
850.4979,1362.5
850.5648,340.7
850.6719,100.5
851.4729,729.4
851.5489,87.5
851.8951,20.9
852.1245,639.2
852.1553,179.2
852.1954,1149.6
852.4461,585.5
852.9511,442.7
853.6605,92.9
853.8729,271.8
854.0932,555.1
854.2764,971
854.4798,479.2
854.5665,2573.1
854.6994,109.5
855.2077,2183.2
855.2905,339.7
855.4273,98
855.4604,176.6
855.8797,317.4
856.0085,1020.9
856.0479,571.2
856.0961,534.6
856.2051,167.9
856.3913,175.8
856.4508,87.4
856.5837,16229.2
856.6085,495.5
856.7066,96.7
856.8682,300.6
857.1722,111.5
857.2318,826.5
857.2932,635.7
857.5867,5702.8
858.1744,185.5
858.6085,70.3
858.6688,3402.5
858.7452,381.4
858.9185,443.1
859.1453,831.5
859.7525,1580.4
859.781,21.5
860.0745,170.5
860.1026,785.5
860.1892,92.8
860.3878,221.6
861.0777,153
861.208,61.7
861.7868,643.1
862.0119,190.9
862.0972,792.9
862.7902,21
862.8898,395.6
863.2037,836.1
863.2519,1162.9
863.5588,205.5
863.8928,1038
863.9985,442.7
864.8045,19.4
865.0955,98.2
865.5363,99.7
865.6388,1268.8
865.7022,160.9
865.7642,61.9
866.0314,109.1
866.3905,781.4
866.6289,431.2
866.6984,520.8
866.7723,390.6
866.9205,19.2
866.9851,367.5
867.5343,235.4
867.7189,808.5
867.8168,60.5
867.8717,401.4
868.3035,652.8
868.4375,1197.5
868.5317,98.2
868.7781,537.6
869.1508,415.5
869.3258,1114.8
869.3662,218.8
869.4159,1123.3
869.472,577.9
869.5175,510.6
869.5417,1207.1
869.5663,936.6
869.6036,903.6
869.6376,3294.8
869.6812,3181.6
869.6998,1959.7
869.759,7644.2
869.7951,6156.6
869.8257,2995.9
869.8769,4426.8
869.949,440.2
869.9742,355.9
870.0141,113.5
870.0964,365.8
870.1241,905.1
870.2021,18.7
870.5856,70.2
871.0054,19.7
871.114,650.1
871.6052,236.5
871.8456,622.3
872.07,95.9
872.5119,1173.9
873.234,85.8
873.2563,90.5
873.2788,129.6
873.519,316.9
873.8044,484.8
873.8367,355.3
873.8665,227.9
873.9895,171.3
874.0289,1293.4
874.713,948.1
875.0075,142.4
875.1065,145
875.3017,228.8
875.6673,1007.3
875.8656,157.8
875.9141,658.9
876.0133,495
876.0533,444.5
876.072,20.3
876.1116,1314.3
876.1662,616.4
876.1884,665.5
876.3921,1055.8
876.4915,196.6
876.5696,944.2
876.9037,71.6
876.9449,156.4
876.9796,74.2
877.3397,114.7
877.4678,458.7
877.4821,536.6
877.5047,435
877.8854,76.1
877.9735,90.4
878.1722,187
878.2272,168.3
878.372,406.6
878.6187,976
878.6543,64.8
879.2485,453.2
879.2969,20.2
879.527,456.5
879.7863,571.8
880.0238,769.5
880.2307,529.4
880.3599,497.7
880.5858,1104.5
880.7437,753.6
881.0493,502.7
881.1015,98.7
881.3248,1123.2
881.6899,650.8
881.8146,659
881.9782,936
882.0712,1228.2
882.3927,588.9
882.716,93.1
883.1045,1099.5
883.1349,688.8
883.2098,19.3
883.3492,439.4
883.8566,1045.8
884.1176,87.9
884.176,112.3
884.4441,119.1
884.5489,737.7
884.6041,22.3
884.6935,129.8
885.0167,19.2
885.2604,875.6
885.3453,127.9
885.6181,531.2
885.941,106.9
886.3061,503.7
886.605,324.4
886.7188,622.5
886.7596,296
886.9127,1774.9
887.3787,710.9
887.5875,201.6
887.8001,291.2
887.9814,769.5
888.2568,71.7
888.2885,23.6
888.4174,624.2
888.4513,220.6
889.0244,1125
889.2079,1515.9
889.3183,649.7
890.2274,1930.9
890.3612,580.6
890.5989,1496.3
891.0389,989
891.0903,920.5
891.5101,679.5
892.27,152.8
892.8145,1015.7
892.9795,172.1
893.1266,1362.5
893.3724,63.6
893.6303,21.3
893.8061,784
894.1835,197.7
894.4043,745
894.5686,779.4
894.6144,220.2
894.7197,128.7
895.0471,1220.5
895.652,1164.1
895.7493,377.9
895.996,183.9
896.2951,1118.3
896.863,549.8
897.2038,283.4
897.228,19.8
897.5567,654.3
897.9576,1351.3
898.1331,72.7
898.1803,2694.1
898.27,19.1
898.3504,105
898.4315,1028.4
898.8544,1128.4
899.1063,213.1
899.1813,942.5
899.2229,85.9
899.4347,488.1
899.4714,653.2
899.583,443.1
899.6245,1550
899.6901,583.7
899.9968,108.9
900.1023,141.5
900.2786,382.9
900.2992,427.8
900.4167,806.6
900.7746,651.9
900.9587,728.8
901.0832,604.6
901.1072,159.7
901.2866,592.6
902.5144,245.6
902.996,204.3
903.1517,2038.4
903.3939,840.3
903.4401,350.2
903.7612,657.9
904.0356,470.7
904.1542,147.1
904.3651,74
904.5557,512.7
904.799,612.1
904.8417,696.1
905.2559,1176.8
905.2901,557.9
905.6284,668.5
905.6503,620.8
905.752,597.4
905.7966,187.5
905.9284,1149.4
906.086,105
906.1236,63.5
906.493,19.3
906.9127,490.4
906.958,137.9
907.4021,129.2
907.6176,286.6
907.6996,21.6
907.9531,185.4
908.315,593.8
909.0661,2658.9
909.5852,89.3
910.0306,765.8
910.149,160
910.5318,19.6
910.6633,262.5
910.8793,506.8
911.7941,610.6
911.9437,1859.1
912.1553,765
912.1686,732.1
912.2982,995.4
912.7209,19.5
912.7461,124.7
913.3023,22.9
913.3823,99.9
913.4708,738.6
913.8345,882.4
914.137,366.5
914.304,93.6
914.4643,1611.4
914.9773,231.4
915.42,706.9
915.5111,98
915.6698,21.8
915.8871,1519.6
916.6518,18.1
916.6651,21
916.8467,22.2
917.1692,660.2
917.5203,425.7
918.2372,163.5
918.4061,105.8
918.4497,17.2
918.5933,2190.3
918.6209,222.3
918.9204,585.5
918.9447,172.8
919.0163,378.2
919.5858,441.5
919.6408,845.4
920.61,727.3
920.6763,168.7
920.8239,403.3
921.0249,159
921.1861,105.1
921.3939,163.2
921.4464,596.3
921.8057,1636.1
922.3294,428
922.5606,210.5
922.7269,963.6
923.0968,518.4
923.4389,398.3
924.078,663.9
924.6422,158.7
925.2931,1951.7
925.4007,767.2
925.6346,628.6
925.9999,738.8
926.0235,116.8
926.1429,925.1
926.219,18.8
926.3139,788.4
926.3511,906.3
926.653,315.4
927.5528,57.3
927.6524,404.2
927.9245,202.5
928.2841,180.5
928.3407,427
928.5535,119.3
928.8913,428.3
929.0958,308.1
929.3999,316.3
930.6181,1986.5
930.8116,20.9
930.8973,148.5
930.9359,114.3
931.2146,297
931.525,1724
932.2467,981.2
932.3328,898.5
932.3645,243.1
932.6622,164.4
932.8158,322.4
933.0637,264.2
933.6253,670.4
933.7189,325.6
933.7337,364.7
934.5624,195
934.992,181.8
935.3265,479.7
935.6778,86.5
936.2533,381.7
936.4074,1649.2
936.5226,631.3
937.5218,101
937.6543,74.5
938.429,923
938.4689,444.4
938.617,177.3
938.7316,20.3
939.3524,942.3
939.5118,1093.8
939.6975,365.7
940.2532,1520
940.3651,1050.1
940.635,393
940.662,780.6
940.7881,443.1
941.0533,1105.2
941.1378,19.9
941.5425,293.6
941.6302,21.2
942.0618,886
942.6004,554.7
942.6887,1628.5
942.8556,1075.7
943.277,115.6
943.3835,267.5
943.4846,174.1
943.6082,184.3
943.8114,300.3
944.1133,217.2
944.3467,224.6
944.5395,336.9
945.626,175.3
945.6934,700.8
946.0339,333.5
946.3965,461.2
946.6079,428.6
946.6199,421.2
946.908,660.6
947.0118,509.8
947.6368,132.2
947.7431,430.3
947.7915,232.7
948.0799,515.5
948.2873,118
948.3896,832
948.4261,334.5
948.5084,1287.1
948.7452,152.7
948.957,192.9
949.3768,197.4
949.4432,990.4
949.622,321.9
949.68,504
949.7015,524.9
949.875,167.5
949.9103,1427.6
950.1425,944.7
950.1964,266.7
950.2396,188.3
950.3079,262.9
950.3344,428.5
950.4096,553.6
951.085,924.1
951.1952,84
951.2461,668.5
951.4427,929.4
951.5561,95.6
951.6115,176.9
951.6891,964.8
951.8543,99
952.0115,265.2
952.1389,355.7
952.1919,741
952.2035,780.1
952.3021,107.2
952.5019,1471.3
952.8293,556.6
953.7052,113.1
954.1504,919.8
954.2781,634.1
954.5104,219.2
955.6442,94.7
956.1132,426.6
956.4419,221.6
956.6492,25.4
956.7263,19.3
956.77,255.3
956.8465,87.5
957.0611,1502
957.4084,1034.5
957.6873,263.5
958.0264,851.1
958.4291,1371.1
958.732,1172.5
959.0892,99.9
959.2524,227.7
959.3214,161.2
960.3859,558.6
960.5759,21.3
960.762,1095.7
961.3063,395.7
961.6244,84
961.86,155.6
961.9691,290.2
962.8721,1024
962.9222,668.3
963.0215,663.4
963.1193,231.1
963.163,389.5
963.2445,65.3
963.2688,62.1
963.3,122.3
963.3351,66.6
963.9649,376
964.3564,1053.7
964.4162,60.8
964.4578,277.5
964.4947,68.9
964.5796,1973
964.7163,633.9
964.8437,700.7
965.2943,1111.1
965.3315,2330.9
965.3677,788.8
965.7383,1157.3
965.7942,1073.5
966.3248,529.3
966.5143,709.4
966.8389,1151.4
966.9557,163.3
967.1532,1336.9
967.1787,714.4
967.3247,1085.9
967.4401,2736.9
967.5934,1051.3
967.6485,575.1
967.8308,2010.7
968.0191,353.9
968.1529,19.2
968.5269,448
968.7812,465.1
968.8957,91.3
969.3455,86.7
969.4199,367.3
969.4823,173.3
969.5724,422
971.2372,687.9
971.657,1146.9
971.7099,517
971.861,949.6
971.9428,2605
972.0345,545.2
972.129,453.6
972.2182,1112.4
972.4643,231.2
972.5497,1163.8
972.5997,209.3
972.882,828.5
973.1797,916.9
973.9854,2341.6
974.2079,97.7
974.2471,600.4
974.4094,1549.4
974.6271,1696.6
974.7482,222.3
974.867,616
975.2039,618.4
975.4949,721.9
975.6597,173.8
975.7416,1390.8
975.8802,464.7
976.2998,94
976.6692,115.6
976.7607,450.2
977.0431,766.1
977.1471,709.7
977.2169,2056.9
977.454,111
977.6612,140.7
977.7806,127
977.8282,215.4
978.0424,1581.5
978.4508,1024
978.4766,100.8
978.6158,1012.4
978.8512,81.9
979.2796,1170.2
979.5415,414.7
980.0304,199.5
980.1834,783
980.6815,1388.9
981.0122,101.8
981.1749,87.7
981.509,259.8
982.1898,804.7
983.2751,3098.9
983.4353,66.4
983.4643,121.1
983.5746,1448.7
983.7965,412.1
983.9623,236.3
984.2617,282.7
984.4181,105.9
984.4686,407.9
984.4834,391.8
984.6832,560.6
984.8308,939.2
984.8845,92.7
985.2333,1107
985.2678,311.9
985.7166,27.3
986.126,840.4
986.3809,1054.8
987.1809,111.5
987.4339,121.2
988.1468,800.5
989.1871,2038.9
989.6299,832.7
990.1422,2684.7
990.3306,365.3
990.366,342.3
990.6371,440.4
990.7146,1429.9
990.8364,660
991.0272,897.8
991.1035,425.8
991.3585,758.2
991.4428,2894.2
991.6027,1620.1
991.7014,19.1
991.8716,472.4
992.2588,104.7
992.6752,731.9
992.8056,810.7
992.8335,858
993.3344,413.2
993.3737,140.3
993.592,101
993.8676,1407.1
993.8981,5409.1
994.336,698
994.3628,398.8
994.3759,471.9
994.5149,478.5
994.7832,271.4
994.8358,631.2
994.9341,632.1
995.0216,269.8
995.5829,2242.9
995.8038,2494.4
995.9403,97.2
996.1333,97.1
996.2066,185.8
996.2483,182.7
996.3519,1714
996.456,209.9
996.8227,187.6
996.89,175.4
996.9774,115.9
997.4459,136.4
997.4709,21.9
998.2052,636.9
998.3586,652.3
998.871,688.6
999.4009,261.9
999.4843,809
999.7544,372.6
