SPECTRUM - MS,
317.RAW,
FTMS + p ESI Full ms [50.00-1000.00],
Scan #: 1-40,
RT: 0.01-1.97,
AV: 40,
m/z,Intensity

50.0044,135.5
50.0061,284.9
50.0235,167.3
50.027,76.2
50.0481,136.3
50.0582,82.4
50.0697,477.6
50.0841,17.3
50.0926,117.3
50.0992,302.5
50.105,89
50.1099,112.3
50.1491,90
50.2074,266.3
50.208,102.7
50.2085,191.4
50.2098,126.8
50.2173,197.9
50.2183,585.3
50.2198,662.8
50.2319,333.5
50.2366,536.4
50.24,260.2
50.2706,119.1
50.2757,82.2
50.2763,621.5
50.291,121.4
50.311,72
50.3157,394
50.3212,343.2
50.3261,640.6
50.3518,794.2
50.3554,119.8
50.37,556.8
50.3727,144.5
50.3977,282.3
50.4043,593.1
50.406,110.3
50.4075,422.3
50.4335,121.2
50.4458,485.2
50.4563,336
50.4824,508.6
50.4939,572.1
50.4953,16.6
50.5272,467.4
50.5613,273.3
50.5799,112.3
50.5887,128.5
50.5992,163.6
50.6064,20.2
50.6074,703.8
50.6199,129.5
50.623,136.4
50.6406,147.7
50.6475,294
50.6486,198.6
50.6559,997.2
50.6642,159.8
50.6976,456.4
50.698,576.7
50.7031,18.7
50.7152,136.9
50.7168,439.5
50.7176,70.4
50.7296,123.7
50.7468,536.8
50.7514,77.2
50.7523,484.3
50.7619,153.6
50.7848,100
50.7929,20.5
50.7981,574.3
50.819,18.4
50.8222,97.4
50.8243,44.1
50.8493,100.7
50.8584,159.7
50.8786,266.4
50.8929,18.6
50.9083,144.1
50.9095,116.6
50.9422,173.4
50.9437,117.3
50.9441,481.6
50.9672,488.4
50.9905,37.8
50.9915,578.3
51.0089,15.8
51.016,82.4
51.0307,522.5
51.0487,20.3
51.0836,101.7
51.0931,190.6
51.109,121.9
51.1222,18
51.1375,456.5
51.1376,461.9
51.1497,262.9
51.1537,82.9
51.174,274.8
51.1944,81.5
51.1945,89.8
51.1947,41.5
51.2038,43.7
51.2216,223.7
51.2231,572.6
51.239,257.9
51.2396,82.7
51.2416,559.3
51.263,127.5
51.2765,17.8
51.2846,198
51.2942,19.6
51.2945,119.7
51.3086,130.1
51.3167,78.7
51.3218,16.2
51.3231,75.2
51.3244,130.8
51.3262,118.6
51.348,468.8
51.3545,112.4
51.3556,317.4
51.3633,315.5
51.369,15.8
51.3912,298.1
51.4012,400.9
51.4014,418
51.4058,85.3
51.4253,338
51.4372,133
51.4465,277.6
51.4851,18.6
51.4941,284.4
51.4952,16.5
51.5006,280.8
51.5114,115.2
51.5141,17.5
51.5156,88.1
51.5308,17
51.541,85.2
51.5947,264.3
51.5983,108.6
51.6021,243.5
51.6127,93.9
51.6367,131.3
51.6439,301.3
51.6702,131.1
51.6787,165.6
51.6868,116.3
51.6947,16.2
51.6971,499.4
51.7,586.2
51.712,114.8
51.7405,613.4
51.7588,21.1
51.7746,166.3
51.7781,120.7
51.7873,369.4
51.8062,395.1
51.8201,94.4
51.8207,502.3
51.8276,125.4
51.841,641
51.8734,175.2
51.8739,261.7
51.8992,130
51.9116,81.9
51.928,17.1
51.9536,103.3
51.9737,347.3
51.9742,278.9
51.9765,162.5
52.0125,79.2
52.0258,366.9
52.0363,130.9
52.0377,148
52.0429,598.3
52.0863,215.4
52.096,39.3
52.1082,603.7
52.115,135.9
52.1262,17.3
52.1397,605.6
52.1438,15.9
52.1703,102.8
52.1827,597.4
52.1876,98.4
52.1979,128.1
52.2049,116.1
52.2325,137.2
52.2577,74.2
52.2583,215.9
52.2699,77.3
52.274,521.3
52.2933,209.7
52.3137,50.6
52.3206,72.1
52.3288,126.6
52.3302,203.5
52.3444,264.1
52.3636,356.5
52.3716,166
52.3782,149.9
52.3786,470.2
52.3869,248.5
52.3887,120.8
52.3945,454.2
52.4113,41.6
52.4126,619.1
52.4133,101
52.4454,410.5
52.4455,407.4
52.4538,466.2
52.4647,506.2
52.4792,15
52.4796,136.3
52.4839,129.1
52.487,16.6
52.5065,577.5
52.5141,49
52.5276,198.4
52.5351,323.9
52.5473,100.7
52.5502,100.8
52.5664,248.3
52.5785,167.1
52.5954,41.3
52.6046,510.5
52.6243,477.6
52.6526,339.2
52.6713,100.2
52.6759,554.6
52.6772,41.4
52.6821,169.4
52.6902,143
52.6938,88.3
52.7018,16.6
52.7287,16.2
52.73,84.4
52.7356,459.1
52.7462,419.4
52.7785,801.5
52.779,236
52.7882,112.1
52.7944,645.1
52.8,100.6
52.8158,318.2
52.8183,712.9
52.8201,174.6
52.8235,256.8
52.8252,1065.9
52.8256,753.2
52.8262,985.1
52.8265,841.4
52.8268,820.2
52.827,1301.6
52.8275,1295.3
52.8284,409.9
52.8289,2577.5
52.8295,1239.6
52.8301,58.3
52.8305,26.4
52.8312,232.9
52.8316,426.5
52.8321,219.8
52.8438,333.8
52.8517,138
52.8581,273.4
52.8593,23.7
52.878,210.1
52.8806,556.2
52.9075,122.8
52.9455,99.4
52.9488,158.9
52.9556,464.8
52.9608,74.3
52.9821,105.6
52.9853,181.1
52.988,226.9
52.9954,253.8
52.9963,287.8
53.0093,350.1
53.0143,215.4
53.0536,475.2
53.0668,355.8
53.0716,338
53.0863,194.4
53.0971,310.1
53.1298,266.7
53.1444,232.7
53.1604,280.1
53.2349,41.2
53.2422,84.2
53.2425,551.5
53.2557,166.9
53.2579,273.3
53.2753,20
53.284,18.5
53.2989,626
53.3069,103.8
53.3094,18.9
53.3248,220.1
53.3268,435.8
53.3357,432.9
53.3486,115
53.3904,280.2
53.4345,183.3
53.4404,82.7
53.4439,76.4
53.4512,158
53.4548,398.9
53.4816,246.6
53.4865,115.7
53.4993,20.9
53.5183,437.3
53.525,138.5
53.5508,85.2
53.5567,371.8
53.564,212.2
53.5826,240.7
53.6034,330
53.6331,41.1
53.6465,17.8
53.6599,92.2
53.6785,618.9
53.7166,119.1
53.7209,508.4
53.7224,96.8
53.7274,351.8
53.7345,452.8
53.7399,525
53.748,100.8
53.7554,580.7
53.7675,74.3
53.7683,569
53.7846,112.9
53.7913,117.4
53.7994,121.4
53.8053,552.5
53.8152,17.9
53.8175,653.6
53.8233,120.4
53.8397,609.5
53.8651,226.6
53.8719,533
53.8758,522.5
53.8776,339.5
53.8994,18.9
53.9033,254.6
53.9093,563.1
53.9182,111.1
53.9203,455.6
53.9507,334.2
53.9614,127.2
53.9648,276.5
53.9659,272.2
53.9673,137.5
53.9988,847.1
54.0003,348.1
54.0128,438.1
54.0194,610.6
54.0264,268.9
54.0575,20.2
54.0789,191.6
54.081,268.3
54.0846,142.6
54.0927,360.5
54.1108,126.1
54.1636,102.9
54.1684,595.2
54.1772,134.1
54.1816,435.3
54.1911,280.3
54.1963,17.3
54.1984,391.3
54.2193,138.7
54.2211,143.7
54.2301,661.9
54.2339,229.2
54.2482,125.8
54.2531,111.5
54.2547,225.3
54.2915,653.7
54.2986,398.6
54.3035,512.7
54.3058,136
54.332,497
54.3544,81.3
54.3559,113.6
54.3747,153
54.3907,283.9
54.3963,112.6
54.4396,17.7
54.4626,627.1
54.4728,368
54.4822,115.3
54.4889,16
54.4927,73.7
54.5147,85.8
54.5269,16.1
54.5626,261.3
54.6026,555.2
54.6417,79.2
54.6438,133.3
54.6492,17.5
54.6743,483.1
54.6851,82.3
54.6969,120.5
54.7215,571.5
54.7345,402.8
54.7371,83.8
54.7416,133.9
54.7485,134.8
54.752,73.5
54.7531,482.9
54.7625,229.1
54.767,18.4
54.8098,115
54.8176,121.5
54.8223,386.9
54.8363,306.3
54.8486,99.6
54.8849,199.2
54.8916,18.1
54.8922,453.3
54.9101,738.6
54.9149,125.5
54.9472,530.3
54.9749,547.7
54.9764,132.3
54.9768,602
54.9927,86.7
55.0038,330.8
55.014,17.3
55.0306,80.6
55.033,484.4
55.0367,393.4
55.0468,544.2
55.056,44.4
55.0605,17.7
55.067,180.1
55.0788,100.4
55.0809,79
55.0859,147.2
55.0968,536.6
55.1119,158.9
55.1554,90.1
55.1682,41.3
55.1879,19.7
55.2125,608.8
55.2338,73.6
55.2635,131.8
55.2644,17.4
55.2909,90.9
55.3484,96.3
55.3632,182.1
55.3646,541.3
55.3733,117
55.3876,201.7
55.4043,209.3
55.4128,17.6
55.4208,139.1
55.4248,16.9
55.4588,93.3
55.4638,273.3
55.4886,101.2
55.5028,19.4
55.5054,224.9
55.5201,17.1
55.5221,18.1
55.526,16.1
55.5366,155.9
55.5427,98.9
55.5444,541.3
55.5552,549.4
55.565,19.5
55.5708,80.5
55.5806,273.1
55.5966,93
55.6012,17.7
55.647,633
55.6489,316.5
55.6516,91.6
55.6788,85.5
55.6851,155.8
55.6929,555.2
55.7173,407.7
55.7241,159.9
55.7288,102.5
55.7353,483.9
55.7402,146.3
55.811,17.8
55.8277,17.7
55.8353,480.9
55.8434,177.1
55.8476,15.7
55.8643,332.2
55.8669,469.6
55.8884,343.2
55.8979,109.6
55.9031,341.5
55.9313,178.5
55.9348,43.6
55.936,95
55.9568,80.8
55.9838,257.3
56.001,312.3
56.0147,604.8
56.0274,524.1
56.0885,140.6
56.0947,527.3
56.1258,83.7
56.132,313.8
56.1504,78.1
56.1635,288.3
56.1765,15.1
56.1805,576.9
56.1816,160.9
56.1837,181
56.1962,178.5
56.2255,221.2
56.2309,758.4
56.2618,95.7
56.2845,91.8
56.2898,133.7
56.3061,686.6
56.3083,329.1
56.3326,140.7
56.3417,302.2
56.3935,15.4
56.3979,452.6
56.4111,287.8
56.4129,40.7
56.4273,162.8
56.476,129.9
56.4836,275.2
56.4887,231
56.5099,323.1
56.5473,75
56.5791,135.8
56.5839,783.6
56.5953,617.6
56.6024,592.4
56.6314,159.4
56.6373,472.2
56.6811,300.7
56.6824,18.4
56.6862,391.2
56.691,15.4
56.6996,561
56.7037,321.1
56.7183,667.2
56.731,104.4
56.7314,17.7
56.7348,504.9
56.7429,518.6
56.7465,385.3
56.7522,665.8
56.8235,766
56.8328,20.5
56.8406,385.8
56.8439,17.6
56.8483,267.6
56.8519,110.8
56.8665,420.9
56.8738,43.4
56.8831,83.9
56.8899,549.5
56.8929,85.3
56.9071,132.7
56.9121,712.2
56.9386,230.9
56.9423,166.1
56.9857,197.5
56.9935,251.4
57.0404,394.4
57.074,388.4
57.077,402.3
57.0854,124.8
57.0943,37.3
57.1149,704.1
57.1565,842
57.1612,389
57.1737,180.8
57.2078,109
57.2135,103.9
57.2254,98.4
57.2277,92.4
57.2349,666.8
57.2446,134.6
57.2611,770.6
57.2686,141.2
57.2871,15.8
57.2902,205.9
57.2917,20.7
57.3088,145.3
57.3121,342.1
57.3154,111.7
57.341,510.7
57.3463,702.6
57.3542,98.8
57.3716,16
57.3796,128.4
57.3807,18.2
57.39,41.3
57.3913,87.8
57.405,153.1
57.44,626.6
57.4722,17.9
57.4846,166.2
57.4899,255.3
57.4949,670.2
57.5008,450
57.509,14.6
57.514,307
57.5153,89.6
57.5406,17.9
57.5604,345.4
57.5732,117.9
57.5783,127.3
57.5823,405.5
57.5985,106.6
57.5994,249
57.6074,77.5
57.6085,527.9
57.6127,73.9
57.6279,87.4
57.63,120.1
57.6411,672.8
57.6433,539.7
57.6564,189.1
57.6582,16.1
57.6911,15.7
57.6935,465.8
57.6979,457.4
57.7183,94.4
57.7188,142.3
57.7278,78.7
57.7385,766.4
57.7414,735.3
57.7637,356.3
57.7754,561.4
57.7777,100.9
57.7939,121.3
57.8031,137.6
57.8095,17
57.8207,137.7
57.824,367.1
57.829,133.2
57.8483,17.1
57.865,131
57.8701,426.6
57.8707,95.3
57.8727,80.2
57.8784,16.8
57.8826,616.9
57.9188,467.6
57.9196,16.6
57.9211,122.1
57.9519,153.2
57.9546,107.4
57.9693,155.1
57.9793,698.5
57.9833,457.1
57.985,77
58.0106,40.2
58.0164,200.2
58.0197,502.5
58.0215,18.2
58.0304,458
58.0377,200.6
58.0575,16.4
58.0636,197.6
58.064,460
58.0678,17
58.0893,204.7
58.0998,42
58.1202,782.8
58.1219,42.3
58.1245,288.5
58.1281,83.9
58.1433,391.3
58.1701,115.4
58.1744,123.9
58.1915,289.7
58.2008,80.6
58.2058,263.4
58.2158,17
58.2326,15.9
58.2358,75.9
58.2542,149.4
58.2567,319.3
58.2835,534
58.3153,490.9
58.3168,559.2
58.3207,259.8
58.3439,477.4
58.3534,493.4
58.3746,83.4
58.3784,463.6
58.394,579.7
58.4058,369.4
58.4164,96.1
58.4509,302.1
58.4568,338.3
58.4984,137.9
58.5056,16
58.5085,663.6
58.5218,84.2
58.5222,142.5
58.5711,147.1
58.5718,556.3
58.5744,628.4
58.5835,97
58.6034,626.1
58.608,101.9
58.6207,99.9
58.626,294
58.6275,1022.2
58.6745,418.4
58.6883,208.8
58.6993,135
58.7081,177.9
58.7125,142.8
58.7154,187.5
58.7281,18
58.7379,159.1
58.7539,202.5
58.7661,467.1
58.7895,85.7
58.792,125.8
58.8131,347.2
58.8295,340.8
58.856,624.3
58.8591,16.5
58.8738,89.2
58.881,91.7
58.8971,198.2
58.9248,214.1
58.9283,176.5
58.9427,87.8
58.9438,621.8
58.9477,363.8
58.9728,93.3
58.9886,531.3
58.9929,116.4
58.9963,295.4
59.0002,16.9
59.045,397.9
59.0583,20.6
59.0717,373
59.0743,611
59.0782,266.9
59.0915,452.9
59.1065,16.5
59.1316,306.6
59.1554,313.4
59.1564,106.5
59.1764,433.9
59.1868,392.8
59.2022,110
59.2198,325
59.2297,74.3
59.2416,280.4
59.2626,44.8
59.2733,500.8
59.2855,15.3
59.2861,121.4
59.3069,87.7
59.3134,554.3
59.3163,122.5
59.3169,150.1
59.3363,95.6
59.3412,130.5
59.3477,113.1
59.3542,505.5
59.3572,89.5
59.3616,156.9
59.3701,530.7
59.371,17.4
59.3825,996.3
59.4258,122.8
59.4321,119.8
59.4421,141.1
59.4619,171
59.4627,15.3
59.4636,200.8
59.4855,393.5
59.4887,370.1
59.5365,18.3
59.5388,47.1
59.5391,39
59.5464,95.2
59.5742,454.2
59.5827,137.5
59.5938,489.5
59.6019,104.2
59.6039,264.3
59.6069,384.5
59.6153,116.7
59.6248,363.5
59.6607,326.1
59.6844,280.5
59.6957,359.7
59.6983,269.5
59.7211,118.8
59.7328,217.7
59.7428,181.8
59.7439,380.2
59.7499,105
59.7598,16.4
59.7635,340.5
59.7663,81.5
59.771,389.9
59.8117,17.7
59.8122,610.9
59.8205,263.1
59.8255,405.4
59.8339,534.3
59.8728,266.7
59.8984,170.5
59.9012,39.5
59.9037,277.8
59.9075,74.5
59.9143,354.5
59.9186,96.9
59.9205,273.7
59.9223,518.7
59.9297,16.3
59.9472,130.3
59.9595,130.8
59.9726,17.9
59.9882,148.3
60.0034,16.1
60.0177,478.2
60.0203,453.1
60.0393,333.9
60.0473,111.8
60.0504,126.7
60.0587,124
60.0741,185.7
60.0793,211.8
60.0827,142.2
60.093,188.7
60.0941,17.3
60.1019,16.9
60.1044,239
60.1216,644.1
60.1227,103.3
60.1343,249.6
60.1701,129.2
60.1708,263.8
60.1917,129.3
60.1989,156.6
60.211,267.1
60.2461,113.5
60.2466,481.2
60.2495,693.1
60.2889,184.9
60.2919,86
60.2957,590.6
60.2991,16.7
60.3029,17.5
60.3124,249.6
60.315,345.5
60.3169,143.5
60.3288,117.9
60.3376,78
60.3417,617.4
60.3486,118.1
60.3595,522.6
60.3666,23.3
60.372,662.2
60.3955,17.2
60.4136,129.1
60.4202,538.3
60.4429,237.2
60.4723,143
60.494,85
60.5078,17.1
60.5138,867.2
60.5302,15.4
60.5465,507.9
60.5487,314.1
60.5578,153.1
60.5651,259.9
60.5722,259.2
60.5754,112.3
60.5801,297.6
60.6091,152.8
60.6185,581.4
60.6284,449
60.6435,17.3
60.6493,320.9
60.6577,287
60.6694,411.1
60.681,331.3
60.6906,174.7
60.7097,18.2
60.7349,56.6
60.7511,43.7
60.7898,656.1
60.7997,122.7
60.8001,507.8
60.8171,541.8
60.842,94.4
60.843,399.9
60.8601,88.6
60.8627,84.5
60.8687,187.5
60.8797,90.3
60.9105,304.7
60.9298,89.7
60.9346,440.2
60.9478,152.9
60.9622,128.9
60.9637,16
60.9648,19.2
60.971,124.8
60.9863,452.6
61.0024,153.9
61.0085,563
61.0253,560.2
61.0362,73.5
61.0444,272.5
61.0657,122.4
61.078,115.1
61.0841,178.4
61.0882,243.1
61.0925,447
61.1333,644.2
61.1749,125.1
61.1807,109.2
61.1875,144.7
61.1928,558.6
61.2021,352.6
61.2102,520.4
61.211,141.1
61.2327,311.7
61.2539,16.6
61.2653,94.4
61.2743,119.1
61.2771,577.2
61.2858,164.8
61.3095,93.6
61.3192,126.6
61.324,537.2
61.3452,316.4
61.3801,632.6
61.3874,101.3
61.4083,78
61.4309,338.5
61.4548,118.6
61.4767,17.4
61.4787,246.1
61.4792,20.4
61.4814,654.6
61.4834,668.3
61.5122,109.2
61.5171,170.1
61.5263,110.2
61.5417,17.3
61.5813,116.9
61.6005,291.3
61.6049,451.6
61.6126,311.1
61.6271,477.7
61.6454,142.5
61.6521,434.7
61.6622,203.6
61.6894,520.7
61.7048,294.1
61.71,213.6
61.7312,18.8
61.763,177.9
61.7642,302.7
61.7755,351.3
61.7795,98.8
61.7854,418.8
61.8018,98.5
61.8051,590.7
61.8057,120.8
61.8255,93.3
61.8427,536.4
61.8455,80.4
61.8589,81.4
61.8619,317.4
61.8691,214.9
61.8755,20
61.8866,194.6
61.9002,298.9
61.9122,210.9
61.9326,93.2
61.9342,120.5
61.9398,469.8
61.9454,82.1
61.9652,315.4
62.0022,18.6
62.017,80.4
62.0236,17.4
62.0674,227.9
62.1321,217.4
62.1348,875.3
62.1434,362.7
62.1489,563.8
62.1615,97
62.1716,500.3
62.1781,361
62.1869,559.1
62.1944,519.3
62.1949,168.7
62.2208,375.9
62.2223,88.9
62.2283,736.1
62.2304,78.6
62.2438,20
62.2446,328.9
62.2857,137.3
62.298,145.3
62.3012,19.8
62.3061,226.6
62.3246,157.9
62.3728,125.3
62.382,182.7
62.3887,399.2
62.39,112.5
62.4074,164.1
62.4217,75.3
62.4634,99.9
62.4695,131.6
62.503,118.4
62.5185,90.5
62.5211,364.7
62.5299,551.7
62.5463,379.3
62.5498,93.4
62.5675,250.5
62.5968,367.5
62.5979,539.6
62.6007,514.7
62.6229,140.2
62.6253,488.5
62.6299,119.4
62.6428,129.3
62.6588,650.9
62.6602,91.1
62.672,118.9
62.6905,16.6
62.6984,17.7
62.7011,479.5
62.7306,278.8
62.7342,342.6
62.7442,297.9
62.747,301.9
62.7499,158.3
62.7712,524.4
62.7823,101
62.7967,632.7
62.8033,135.9
62.8147,701.6
62.8589,18.2
62.8593,100.4
62.8719,301.1
62.8916,333.5
62.9022,75.6
62.9034,121.1
62.9057,19.5
62.9079,399.3
62.9145,16.4
62.9223,516
62.935,18.6
62.9651,118
62.9728,275.2
62.9738,199.8
63.003,548.1
63.0208,149.6
63.0271,202.7
63.0533,539.7
63.0545,619
63.0722,545.6
63.079,283.8
63.0834,555.8
63.0873,88.7
63.1032,187.9
63.1069,15.8
63.1155,287.4
63.1184,763.3
63.1269,107.8
63.1395,564.2
63.1477,534
63.1604,85.4
63.1823,702.5
63.194,491.2
63.198,295.3
63.2008,127.3
63.2072,97.9
63.2513,207.9
63.277,76.4
63.2857,298.8
63.332,405.4
63.336,210.9
63.3537,323.4
63.355,18.3
63.3612,536.1
63.3671,122.9
63.3715,19
63.4,486.5
63.4007,19
63.411,15.5
63.4182,277.3
63.4242,125.2
63.4253,47.2
63.4277,511.2
63.431,17.1
63.4408,110
63.4858,104.6
63.4954,161.8
63.502,16.2
63.5452,291.5
63.5683,130.5
63.5886,649.2
63.5929,469.2
63.6447,1141.1
63.6487,18.6
63.6514,185.5
63.6604,18.5
63.6615,159.2
63.6755,104.1
63.6766,115.4
63.6801,284.9
63.683,259.3
63.6896,624.3
63.6957,118.5
63.7025,149.3
63.7068,127
63.7112,18.1
63.7286,360.5
63.8026,124.2
63.8083,282.8
63.838,147.2
63.8403,89.9
63.842,356.3
63.8474,480.6
63.9201,511.9
63.9264,17.7
63.9362,152.1
63.9379,488.5
63.938,462.9
63.9383,206.1
63.9389,456.6
63.9524,623.4
63.9696,456.9
63.9712,645.5
63.9771,368.4
63.9805,95.5
63.9832,141.7
64.0016,130.4
64.0461,562.8
64.0608,227.3
64.0824,19.4
64.0877,80.7
64.0994,167
64.1129,101.4
64.1259,251.4
64.1457,488.4
64.2285,95.7
64.2428,674.6
64.2571,273.6
64.2627,857.7
64.2645,137.8
64.3387,90
64.3429,279.4
64.3589,364.3
64.3596,19.6
64.3746,128.8
64.398,18.2
64.4015,251.8
64.436,168.9
64.4414,115.6
64.4619,17.1
64.4638,163.4
64.468,76.6
64.4811,155
64.4813,169
64.5104,17.1
64.5333,670.5
64.5596,679.8
64.5711,81.6
64.5764,16
64.6003,212.9
64.6063,468.2
64.6112,697.9
64.624,88.3
64.6286,96.9
64.644,271.5
64.7127,100.2
64.7166,652
64.7193,315.2
64.7284,245
64.7315,537
64.746,207
64.7515,17.2
64.7766,17.1
64.7887,18.9
64.8005,264.2
64.8221,335
64.8267,17.7
64.8374,137.7
64.8412,263.3
64.8489,251.2
64.8546,204.8
64.8692,18.7
64.8709,498.2
64.8728,599.8
64.8734,678.9
64.8842,374.6
64.8885,106.8
64.8903,524.2
64.8926,93.3
64.8941,584.6
64.919,92.7
64.9519,449.9
64.9812,358.6
64.9842,122.3
64.9889,404.7
64.9974,637.2
65.0297,57
65.0663,524.2
65.0849,155
65.1337,293.1
65.1837,112.3
65.1875,130.7
65.2017,156.3
65.2024,85.8
65.2117,907.8
65.2463,242.3
65.247,18.7
65.2501,103.9
65.2808,41.8
65.2865,17.6
65.3003,305.6
65.3057,591.2
65.3116,123.3
65.3299,177.6
65.3406,607.4
65.3442,17.3
65.3512,110.2
65.3838,16.8
65.3956,156.6
65.4063,108.1
65.4087,212
65.4111,121.3
65.4133,513.7
65.4519,114.5
65.4543,15.8
65.4674,18.4
65.4784,104.6
65.4977,686
65.512,77.8
65.5175,89.5
65.5829,110.9
65.5878,128.9
65.5954,711.1
65.6044,544.7
65.6186,275.4
65.6231,548
65.639,548.7
65.6396,341.4
65.647,543.4
65.6522,505.4
65.6663,267.6
65.6925,201
65.6957,140.5
65.7064,148.7
65.7615,17.3
65.7637,123.7
65.7669,356.3
65.7784,267.4
65.7905,287.5
65.8362,106.5
65.8418,79.7
65.844,156.9
65.8464,121.9
65.8527,95.3
65.8626,125.7
65.8652,363.2
65.8754,567.1
65.8978,806.3
65.9064,441.3
65.9087,124.7
65.9205,690.2
65.9273,18.8
65.9389,20.6
65.9672,462.6
65.9806,730.8
65.9971,116
66.004,303.2
66.0072,409.2
66.0179,526.8
66.0351,295.3
66.0364,18.9
66.0472,246.9
66.0482,309.1
66.0523,456.5
66.0687,170.8
66.0714,100.4
66.1052,352.5
66.112,480.8
66.1161,563.9
66.1169,115
66.1242,80.5
66.1302,107.1
66.1349,455.3
66.1388,289.8
66.1493,481.6
66.1551,662.5
66.1719,77.7
66.2031,291.6
66.2168,122.8
66.2293,86.6
66.247,20.2
66.2616,21.1
66.2954,150.5
66.2956,184.5
66.3145,426.7
66.3209,47.3
66.3456,305.7
66.3496,97.1
66.3713,132.2
66.3834,333.5
66.4207,334
66.4222,119.7
66.4631,142.4
66.5001,79.9
66.5142,271.6
66.5293,18
66.5431,437.5
66.5477,18.3
66.5588,504.2
66.561,17.6
66.5853,81
66.5882,16.4
66.5898,433
66.5993,126.8
66.6022,128.4
66.6277,543.7
66.6385,85.7
66.6661,72.2
66.6837,23
66.6981,211.5
66.7116,141.9
66.7265,565
66.7303,275.4
66.7344,630.6
66.7549,17
66.7616,276.7
66.766,493.3
66.7718,415
66.7819,635.9
66.7848,80.9
66.7999,173.7
66.8053,277.8
66.807,78.9
66.8405,287.1
66.8483,662
66.8606,238.3
66.8629,412.4
66.8836,546.8
66.9004,141.6
66.905,77.2
66.9095,338
66.9126,128.3
66.9385,583.1
66.9814,633.4
66.9817,590
66.9818,524.4
66.9905,132.8
67.0106,493.3
67.0128,643
67.0184,17
67.0197,1101.2
67.0517,583.2
67.0526,93.8
67.0539,61.7
67.0574,574
67.0639,121.8
67.0979,118.3
67.0994,681.7
67.1225,427.2
67.1748,115
67.1772,569.7
67.2254,137.5
67.2484,302.2
67.2736,363.6
67.2871,44.4
67.2904,110.1
67.3023,280.5
67.3136,208.3
67.33,356.2
67.3394,91.1
67.3538,18
67.3553,102.1
67.3589,580.1
67.3615,94.4
67.3644,201.3
67.368,116.6
67.3923,245.3
67.4159,146.5
67.4177,537.1
67.4301,101.1
67.4476,504.7
67.4481,517.8
67.4557,93.4
67.4584,175
67.4942,130.3
67.536,349.7
67.555,18.5
67.5561,274.6
67.5594,554.3
67.5718,317.4
67.6125,362.4
67.6206,78.8
67.6353,116
67.6385,635
67.6574,88.2
67.6812,148.8
67.6922,152.2
67.6933,338.5
67.6968,646.3
67.725,582.5
67.7373,17.8
67.7644,636.6
67.7718,678.2
67.7732,98.6
67.7774,125.1
67.789,162.1
67.8046,54.9
67.8125,114.4
67.8232,112.2
67.8239,143.6
67.8289,99.9
67.8453,150.3
67.8506,17.4
67.8554,19.6
67.8996,135.1
67.9119,488.7
67.9271,119.3
67.9392,267.9
67.9572,675.2
67.9663,16.5
67.998,112.4
68.043,414.5
68.0512,126.6
68.0581,92.3
68.089,188.8
68.1201,572.8
68.1306,97.3
68.1413,88.6
68.1533,173.6
68.156,16.8
68.1698,477.2
68.1772,198.8
68.1908,571.4
68.2065,227.5
68.2148,89.8
68.2515,330.7
68.257,405.8
68.2616,113.1
68.2728,130.7
68.2854,291.6
68.2903,109.8
68.3173,406.6
68.3363,103.9
68.3423,203.4
68.3457,170.4
68.369,92.9
68.3724,112.2
68.3752,131.7
68.4008,209.5
68.4051,548.8
68.4064,335
68.4126,134.3
68.4169,842.9
68.4335,545
68.44,20.7
68.4657,119.3
68.4706,376.4
68.472,137.9
68.4784,269.7
68.482,100.2
68.51,590.2
68.56,310.5
68.5823,381.6
68.6096,90.6
68.6294,118.1
68.6332,124.6
68.6401,160.8
68.6847,203.1
68.6868,199.4
68.7468,409.1
68.7555,579.7
68.7819,222.9
68.7854,300
68.7882,164.5
68.7961,125.1
68.8041,144.4
68.8128,345.4
68.8151,16.6
68.8239,169.6
68.8281,279.6
68.8493,150.9
68.8565,340.3
68.8692,592.8
68.8956,102.8
68.9077,158.7
68.9139,16.2
68.9285,273.5
68.9351,125.6
68.9443,179.3
68.9539,22
68.9545,97.8
68.9696,564
68.9855,589.8
68.9993,607.9
68.9999,331.8
69.0049,613.2
69.092,859.1
69.098,322.4
69.1096,94
69.1411,50.9
69.1533,129
69.154,84.4
69.1629,283.8
69.1742,469.3
69.1762,97.1
69.1804,849.7
69.1899,150.8
69.2585,150.7
69.2716,207.8
69.2969,129.1
69.3118,103.6
69.3364,210.8
69.3439,158.3
69.361,187.6
69.3707,395.7
69.3821,138.3
69.4073,125.9
69.4113,20.1
69.4194,125.7
69.4217,386.7
69.4219,331.1
69.4246,124.8
69.434,91.2
69.4562,137.9
69.4798,16.6
69.48,17.4
69.512,121.5
69.5148,491.5
69.5163,787.7
69.5293,163.1
69.53,280.6
69.5393,347.1
69.5526,628.5
69.5628,482.1
69.5841,341.9
69.5925,83.6
69.5991,112.8
69.6025,16.8
69.7171,188
69.7216,88.5
69.7399,119.5
69.7747,17.9
69.7853,83.3
69.7888,547.4
69.8025,446.5
69.8085,80
69.8118,103
69.87,379
69.8888,491.3
69.8939,19.9
69.9245,168.1
69.9346,252.7
69.964,17
69.9658,90.5
69.973,132.6
69.9765,530.9
69.9801,296.7
69.9936,203.2
70.0508,147.5
70.0576,667
70.0648,963.1
70.0717,497.4
70.085,605.6
70.1031,115.1
70.1219,601.6
70.1591,139.7
70.1712,17.8
70.1766,432.4
70.1942,580.8
70.2137,144.1
70.221,124.9
70.2321,755.9
70.2343,44.6
70.2399,583.5
70.2563,20.7
70.2581,564
70.2916,173.5
70.3165,150.1
70.3229,27.8
70.3481,293.1
70.3826,585.4
70.3866,76.5
70.4372,419.7
70.4402,271.7
70.4457,556.7
70.461,679.3
70.5067,196.3
70.517,60.2
70.5191,655.3
70.5232,115.1
70.5452,278.4
70.5657,84.9
70.5729,84.5
70.6055,456.2
70.6221,152.1
70.635,277.3
70.6814,342
70.6863,485.4
70.7001,465.9
70.7162,138.5
70.7279,266.3
70.729,18.5
70.76,657.7
70.7795,170.6
70.7832,18.4
70.7905,346.5
70.8039,516.4
70.8481,450.3
70.8655,21.1
70.8951,88
70.9245,505.2
70.9878,142.8
70.9956,143.3
71.0015,155.1
71.0087,359.2
71.0196,284.4
71.0272,349.1
71.044,544.7
71.049,17
71.0576,146.5
71.0637,86.3
71.0694,628.3
71.0885,262.2
71.0909,76.9
71.0988,43.1
71.1017,18.6
71.1071,340
71.1162,485
71.1183,595.6
71.1239,184.7
71.1309,181.1
71.162,87.2
71.1693,503.7
71.1851,362.7
71.1926,361.7
71.2204,135.3
71.2566,483.5
71.2684,170.9
71.2722,447.3
71.2871,127.1
71.3238,87.5
71.3327,82.4
71.3498,149
71.3621,170.5
71.3723,162.4
71.3819,388.2
71.4046,85.2
71.4463,81.9
71.4533,15.8
71.4558,89.1
71.4736,702.8
71.4815,80.7
71.4929,645.6
71.5156,382.7
71.543,111.1
71.5556,585.6
71.5934,79.1
71.5997,125.4
71.6045,477.8
71.6315,505.7
71.656,629.9
71.6949,18.7
71.718,242.5
71.7407,310.1
71.7426,559
71.7438,19
71.7559,320.4
71.7646,18.4
71.7666,703.9
71.8128,206.5
71.8603,540.5
71.8676,91.4
71.8858,102.3
71.9071,16.9
71.9087,19.3
71.9148,376.7
71.9682,115.9
71.9789,308.9
71.9821,89.5
72.0136,95
72.0398,157.7
72.0456,611
72.0515,118.4
72.0804,1761.9
72.0875,705.1
72.0902,628
72.1194,595.4
72.1219,379.8
72.1333,112
72.1341,53.2
72.1615,133
72.1796,129
72.1847,145.7
72.2082,16.6
72.2168,411.8
72.2194,118.3
72.2206,24.7
72.2219,142.8
72.2239,267.4
72.2242,153.7
72.2249,224.5
72.2258,732.3
72.2273,431.2
72.2282,425.7
72.2293,1134
72.2302,683.8
72.2314,1180.7
72.2321,789.6
72.2325,589.9
72.233,1458.1
72.234,1848.6
72.2349,1382.5
72.2357,2828.8
72.2362,2848.7
72.237,2616.1
72.2381,2045.6
72.2393,3906.9
72.2406,4158
72.2411,4177
72.2425,4946.1
72.2434,2985.7
72.2442,2816.2
72.2453,1031.4
72.2459,2231.5
72.248,3023.1
72.2495,603.2
72.2503,1141.8
72.2514,25.7
72.2601,445.9
72.2736,319.8
72.2902,526.2
72.3145,383.4
72.3402,257.6
72.3407,122.2
72.35,523.2
72.385,484
72.3958,101
72.4088,17
72.4095,590.2
72.4126,396.3
72.4292,93
72.4353,18.5
72.4361,79.2
72.4731,18.1
72.4913,128.8
72.4959,139.9
72.5283,369.8
72.5459,87.1
72.5601,367.9
72.5778,163.2
72.5907,270.6
72.5912,264.2
72.5993,301.9
72.6077,16.1
72.6123,86.7
72.6174,107.4
72.6254,405.8
72.6294,101.3
72.6357,489
72.6458,455.9
72.6679,468
72.6934,327.7
72.7147,54.9
72.7389,260.1
72.7447,107.5
72.7578,674.7
72.7755,210
72.786,174.5
72.8197,265.2
72.8204,217.3
72.8386,343.9
72.864,103.3
72.8901,138.5
72.897,648.1
72.8979,484.1
72.9111,149
72.9183,278.3
72.9229,84.2
72.9367,728.9
72.9672,71.7
72.9706,338.5
72.9814,154.8
73.0049,500.1
73.0075,129
73.0131,107.4
73.0195,683.6
73.0383,463.3
73.0451,93.2
73.0475,106.3
73.0565,199.2
73.0606,105.4
73.0619,151.8
73.0827,117.6
73.0882,130.3
73.0942,16.2
73.1017,19.2
73.1242,361.7
73.126,308.6
73.143,18.3
73.1626,146.8
73.1724,152.3
73.1867,628.4
73.1899,311
73.2119,20.1
73.2184,541.1
73.2229,137
73.244,177.7
73.2501,131.4
73.2841,91.4
73.2978,89.4
73.3227,641.3
73.3365,201
73.3442,147.3
73.3948,132
73.4079,88.2
73.4196,90.8
73.4414,79.7
73.4496,339.8
73.4812,16.5
73.5015,83.1
73.5067,135.4
73.5082,80.6
73.51,397.2
73.5172,129
73.5314,103.3
73.5439,389
73.5495,15
73.5655,333.2
73.6007,316
73.6038,215.2
73.6059,351.7
73.6183,550.8
73.6444,186.5
73.6727,501.4
73.6741,297.5
73.6776,103.7
73.7038,96.2
73.7111,579.2
73.7694,750.1
73.7957,134.2
73.7984,23
73.8263,15.8
73.8579,122.7
73.8603,509.8
73.8761,20.9
73.8914,523.8
73.9159,19
73.9404,628.6
73.9439,116.7
73.9493,99.4
73.9762,643.8
73.9768,239.5
73.9883,219.1
74.0167,173.8
74.0419,210.5
74.0597,2549.4
74.0622,249.1
74.0651,94.5
74.0905,134.2
74.12,18
74.1224,603.1
74.1439,477.7
74.1534,246.3
74.1563,500.5
74.1626,148.3
74.1738,90.1
74.2622,80.8
74.2975,638.9
74.2998,131
74.3171,136.3
74.3381,17
74.3434,532.6
74.3493,355.2
74.3681,118
74.3702,142.1
74.3864,181.5
74.3886,209.4
74.4079,108.4
74.4252,247.6
74.4384,353.7
74.4476,176.6
74.4593,400.5
74.4623,15.9
74.4648,394.7
74.494,136.2
74.4989,565.4
74.5168,662.9
74.5359,347
74.5369,46.1
74.5493,140.3
74.5572,123.4
74.5809,113
74.6091,175.3
74.6146,90.4
74.622,589.8
74.6227,180.3
74.664,16.7
74.6676,525.8
74.6693,507.9
74.6745,153
74.6753,272.7
74.691,90.4
74.6962,92.4
74.7216,18.4
74.7333,566.9
74.7351,123.6
74.7376,202.6
74.7504,677.1
74.7763,305
74.779,411.4
74.7959,339.2
74.8073,366.9
74.8285,563.7
74.8396,271.5
74.8582,415.4
74.8851,246
74.9053,250.1
74.9213,16.4
74.9564,126.1
74.9585,340.2
74.9813,153
74.985,91.7
74.9886,535.4
74.9915,160.8
75.0006,114.2
75.0131,591.9
75.0144,329.9
75.0225,19.5
75.0491,446.1
75.0602,286.7
75.0678,88.6
75.1128,296
75.125,17.8
75.1284,110
75.1368,136.1
75.1472,129.7
75.1567,165.6
75.1716,17.6
75.1893,334.7
75.2223,15.7
75.2292,182.9
75.2446,123.1
75.2943,113.9
75.3097,382
75.3178,382.8
75.3282,894.9
75.3563,18.1
75.3577,190.7
75.3764,555.8
75.3769,206.8
75.3824,125.6
75.3896,82.1
75.3964,533.9
75.4053,126.8
75.437,213.2
75.4391,235
75.4409,95.1
75.4585,562.1
75.5,226.6
75.5094,179.5
75.5107,104.7
75.516,127
75.5239,337.4
75.539,303.9
75.5476,644.4
75.5627,252.2
75.5638,138.2
75.5782,43.7
75.5791,252.8
75.5833,241.7
75.6002,93.6
75.6375,565.6
75.6394,86.6
75.6407,144.7
75.658,380.1
75.6889,326.3
75.6915,149.5
75.7089,213.1
75.7107,92
75.7243,19.5
75.7334,676.3
75.7462,128.2
75.7731,244.3
75.8309,381
75.8406,96.4
75.842,19.8
75.8482,18.5
75.8551,223
75.8725,120.7
75.8736,614.5
75.8844,199.9
75.8875,98
75.9074,685.8
76.0053,346.6
76.017,149.1
76.0273,539.9
76.0523,167.5
76.0543,112.1
76.0732,610.2
76.0952,114.1
76.1007,16
76.1347,94.6
76.1549,80.8
76.1864,182.4
76.2244,276.4
76.2315,657.3
76.2376,414.4
76.2443,439.3
76.2449,495.1
76.2636,97.1
76.2672,185.3
76.3167,47.9
76.3244,693.6
76.3476,127
76.3546,19
76.3777,503.1
76.3948,491.9
76.396,330
76.3975,701
76.4114,600.2
76.4146,457.3
76.4153,609.5
76.4169,154.7
76.4457,80.7
76.4791,95.1
76.4808,208.5
76.524,699.1
76.5325,332.5
76.5351,132
76.5433,344
76.5998,19
76.6247,639.6
76.6372,452
76.6399,364.2
76.6507,465.1
76.6944,591.9
76.6988,154.9
76.7015,134.9
76.7053,91.2
76.7119,287.7
76.7336,489.1
76.7598,16.5
76.7708,434.3
76.7803,17.5
76.8029,473.7
76.8594,291.4
76.8922,335.6
76.9141,289.1
76.9404,17.7
76.9529,18.2
76.9677,117.5
76.9771,295.2
76.9782,489.6
76.9793,119
76.9823,249.9
76.9871,83.7
76.9932,168.4
77.0015,155.8
77.0274,120.1
77.035,550
77.0383,111986.9
77.0394,52.3
77.0412,21.6
77.0439,41.7
77.0994,745.9
77.1063,277
77.1308,464.9
77.1417,95
77.1591,17.7
77.1716,86.6
77.1794,55.7
77.1884,453.9
77.2016,678.7
77.2156,331.1
77.2294,135.8
77.2385,101.4
77.2429,608.8
77.284,125.1
77.2905,16.7
77.3028,162.3
77.3071,495
77.3127,204.9
77.3229,80.4
77.329,401.6
77.3362,146.4
77.3441,482.7
77.3476,290.8
77.3539,51.2
77.361,153.3
77.3653,19.2
77.3674,531.5
77.3784,203.9
77.3887,592.9
77.4004,412.3
77.4232,710.5
77.4291,760
77.4618,99.9
77.4891,593.2
77.4936,609.9
77.4999,338.3
77.5027,168.6
77.5339,568.5
77.5534,140.4
77.5669,219.5
77.5975,113.8
77.6203,579.4
77.6263,722.6
77.6517,401.5
77.6566,100.9
77.6831,287
77.7048,297.1
77.7068,290
77.7263,133.7
77.7429,95.3
77.7544,173.6
77.766,236
77.7671,265.5
77.7716,130.7
77.8057,434.1
77.8598,659.7
77.882,622.5
77.8917,160.4
77.9059,109.6
77.9077,452.7
77.9089,95.3
77.9098,48.4
77.9436,268.8
77.9565,97.5
77.9595,296.4
77.9716,104.8
77.9773,200.2
77.9842,117.1
78.014,236.7
78.0416,3119.1
78.0479,289.6
78.0493,84.7
78.0611,94.5
78.0775,19.2
78.0964,102.3
78.1152,98.6
78.1239,40.4
78.1303,208.3
78.1499,217.4
78.1655,107.5
78.2206,17.8
78.2275,390.8
78.2778,173.7
78.3122,19.8
78.3335,413.8
78.3548,95.5
78.4403,171.9
78.4742,158
78.5015,93.4
78.5116,15.9
78.5257,487.4
78.5366,508.2
78.5445,139.3
78.5814,375.9
78.6216,423.3
78.6297,542.9
78.6355,163.9
78.637,140
78.6426,15.5
78.6443,94.6
78.6532,598.5
78.7414,312.3
78.7777,128.7
78.8209,165
78.8313,161.9
78.8333,141.3
78.8338,16.5
78.8443,74.9
78.8523,607.4
78.858,20.1
78.8936,638.9
78.9192,646.9
78.9319,177.6
78.9548,21.3
78.9669,268.9
78.9756,87.9
78.9871,428.5
78.992,17.7
78.9967,39.5
79.0413,95.6
79.0539,2203.7
79.0562,179.9
79.0661,130.5
79.075,296.5
79.0827,676
79.0957,512.3
79.1069,447.2
79.1378,157
79.147,108.2
79.1958,17
79.1966,670.4
79.1971,450.4
79.2235,723.3
79.227,685.3
79.2618,295.8
79.2881,43.8
79.3058,311.6
79.3078,126.6
79.3133,673.5
79.3498,498.8
79.3828,280.7
79.384,293.3
79.4172,130.8
79.4301,18.9
79.463,78.6
79.5133,193
79.5878,143.3
79.6086,15.8
79.6431,194.6
79.6604,223.5
79.6687,368.8
79.6895,574.3
79.6909,86.2
79.694,307.7
79.7226,162.8
79.7487,171.4
79.7597,43.1
79.7606,515.4
79.7694,253.4
79.7737,96.5
79.78,127.7
79.7977,195.7
79.8124,111.3
79.8186,164.5
79.8406,82.8
79.879,16.9
79.9197,204.5
79.9253,443.7
79.9419,150.4
79.9489,315.6
79.9685,22.1
79.9798,99.6
80.005,240.5
80.0058,596.9
80.0093,107.9
80.0178,301
80.0384,105
80.0627,695.6
80.0831,347.7
80.1003,251.4
80.142,287.8
80.1715,597.2
80.1776,162.3
80.1811,102.9
80.1904,308.2
80.2017,290.6
80.2031,93.3
80.2039,102.5
80.2066,475.9
80.2162,18.4
80.2188,19.9
80.2476,101.6
80.2828,137.2
80.2855,287.1
80.2942,423.5
80.3108,372.4
80.3121,131.8
80.3463,149.5
80.3576,453.2
80.3854,20.2
80.4443,152.3
80.4512,107.2
80.4533,128.8
80.4545,97.9
80.4586,19.9
80.469,91.7
80.4775,20
80.4791,156.5
80.4947,276.2
80.5025,122.3
80.5162,542.6
80.568,195.2
80.5756,97.3
80.6125,83.2
80.6506,267.5
80.6539,240.8
80.6756,463
80.69,124.2
80.7242,589.2
80.7304,652.7
80.7398,178.3
80.753,272.3
80.7692,122.2
80.7999,133.2
80.8089,335.1
80.821,17.7
80.8411,170.4
80.8423,176.6
80.8586,722.8
80.8848,431.6
80.9053,156.3
80.9165,17.7
80.9299,89.5
80.9387,85.9
80.9476,43736.6
80.9811,327.9
80.9881,88.8
80.9926,21.3
81.0385,18.9
81.043,447.7
81.0493,82.6
81.056,92.3
81.0695,1513.3
81.083,481.7
81.0898,77.6
81.1293,167
81.1514,133.5
81.1546,179.6
81.1652,477.9
81.1663,1555.6
81.1669,634.2
81.1679,889.6
81.1687,579.1
81.169,506.7
81.1698,786.9
81.1706,136.8
81.1709,133.3
81.1715,155.3
81.1746,238.8
81.2069,451
81.2279,94.5
81.236,16.5
81.2414,414.2
81.2579,18.9
81.2742,313.3
81.2906,131.5
81.3143,261.8
81.3175,16.3
81.3422,129
81.3623,538.5
81.3754,473.1
81.3975,16.3
81.4014,236.9
81.428,233.2
81.4394,189
81.4404,515.1
81.4536,167.2
81.457,752.3
81.4849,191.1
81.4921,256.5
81.5197,191.3
81.5205,18.8
81.5285,461.3
81.5521,609
81.5823,86.1
81.6155,82.9
81.6362,125.4
81.6613,241.7
81.6799,270.5
81.7046,44.4
81.7157,96.5
81.7229,477.8
81.7427,109.1
81.8533,125.1
81.8617,101.5
81.8796,588
81.9644,587.4
81.965,130.6
81.9785,261.5
81.988,657.9
82.0251,172.4
82.0306,667.7
82.033,43.5
82.0412,251.3
82.0445,342.2
82.0617,148.6
82.0938,19.8
82.0981,97.8
82.1234,614.6
82.1451,129.4
82.1641,145.9
82.1718,187.5
82.1762,337.8
82.1817,493
82.2325,93.9
82.2462,220.3
82.2485,317.4
82.2598,359
82.2757,142.5
82.2795,1010.4
82.2943,249.3
82.317,110.4
82.3302,231.5
82.36,663
82.3647,128.4
82.378,84.8
82.3926,495.2
82.4053,516.8
82.4104,21.9
82.4177,349.3
82.4332,207.9
82.4512,17.5
82.4852,113.2
82.486,318.6
82.5001,570.1
82.5199,236.3
82.5578,308.5
82.6108,622.3
82.6812,112.4
82.6873,126
82.7177,183.6
82.7237,557.7
82.7764,120
82.7856,149.5
82.8094,626.5
82.8301,94
82.8486,111.8
82.9037,93.7
82.9092,627.2
82.9427,432.6
82.9446,10739
82.9464,437.4
82.9493,52.6
82.9596,103.3
83.0021,122.1
83.0046,297.3
83.0213,908.1
83.0427,100.1
83.0852,22.3
83.107,695.8
83.1241,95.6
83.1291,241.9
83.149,340.8
83.1771,288.3
83.1968,168.9
83.2328,273.2
83.2435,97.5
83.2449,16
83.2837,99.5
83.3009,178.4
83.3083,217.3
83.3155,406.2
83.3238,572.1
83.3491,124.5
83.3896,340.4
83.3962,244
83.4051,137
83.4153,121.6
83.4287,383.5
83.4296,94.8
83.4347,404.7
83.4382,122.4
83.4415,175.7
83.4916,269.2
83.5744,110.6
83.5792,94.4
83.601,236.8
83.607,883.9
83.6098,95.8
83.6494,664.6
83.6779,18
83.6848,84.8
83.7036,228.7
83.7368,115.4
83.7376,372.6
83.743,89.2
83.7445,134.2
83.7506,326
83.7512,134.5
83.7528,550.8
83.7583,710.4
83.768,364.1
83.7688,306.5
83.7764,257.9
83.8032,372.4
83.8197,16.3
83.8294,146.1
83.8394,225.6
83.8451,517.4
83.8979,660.1
83.922,389.9
83.9283,706.3
83.9295,17.6
84.0018,581.1
84.017,616.4
84.0266,168.8
84.0374,636.4
84.0389,176
84.0441,2330.1
84.0806,694.2
84.1016,147.7
84.1066,643.5
84.1158,632.7
84.1674,274.8
84.1807,142.7
84.1903,129
84.2129,596.7
84.2232,119.9
84.2267,132
84.2286,114.8
84.2315,92.6
84.2453,159.2
84.2685,436.3
84.3014,88.2
84.3538,267.3
84.3565,134.8
84.3642,439.1
84.3653,572.7
84.3776,131.9
84.4244,138.6
84.4555,234.5
84.4694,22.8
84.4728,671.2
84.4894,143.2
84.493,134
84.5639,167.6
84.5998,308.4
84.6312,152.9
84.6331,575.9
84.6349,503.3
84.6582,721.1
84.6861,671.2
84.6984,709
84.6998,249.4
84.7173,694.4
84.7247,345
84.7254,650.5
84.7404,287.4
84.7448,667
84.7466,353.2
84.7679,131.1
84.7779,81
84.7873,107.1
84.8141,21.4
84.8635,369.5
84.8734,637.6
84.8772,202.5
84.8824,255.1
84.9033,111.7
84.9185,217.4
84.9594,18259.9
84.9602,398.1
84.9647,164.9
85.0125,84.2
85.0248,315.9
85.0328,376.5
85.0334,247.3
85.0408,354.6
85.0494,208.4
85.0622,667.5
85.072,605.6
85.0735,329.7
85.1063,150.1
85.1333,372.7
85.1444,20.3
85.1725,180.5
85.1888,324.5
85.2158,21.2
85.2275,134.1
85.2476,115.7
85.2529,203.4
85.2589,18.5
85.2787,241.4
85.3356,19.7
85.3384,107.1
85.3817,478.2
85.3929,214.7
85.4069,427.5
85.4174,149.8
85.4246,86.7
85.4388,278.7
85.5192,824.3
85.5282,303.6
85.5543,219.7
85.6084,542.3
85.6294,92.5
85.6584,16.8
85.6608,258.8
85.675,92
85.6832,456.9
85.8118,173.3
85.8157,100.7
85.867,98.6
85.8966,100.3
85.9145,114.1
85.9187,18.8
85.9333,242.8
85.9444,216.1
85.9516,300
85.9728,103.4
85.9787,539.4
85.9846,317.1
85.988,223.9
86.0547,688.1
86.0598,26359.6
86.07,192.8
86.0962,92049.4
86.0974,644
86.1051,149.4
86.1074,627.4
86.1168,142.6
86.1356,85.3
86.1589,297.5
86.1647,313.1
86.2104,117.8
86.2482,729.1
86.2653,98.2
86.297,173.8
86.3051,20.5
86.3282,92.1
86.3649,129.9
86.3784,129.6
86.4039,78.4
86.4229,359.8
86.4274,95.7
86.4469,593.1
86.4473,587.2
86.4598,139.8
86.4839,29.7
86.495,448.6
86.5015,86.7
86.5183,698.5
86.5214,438.4
86.534,332.2
86.541,197.1
86.5635,201
86.5684,533.2
86.6123,188.4
86.6217,15.9
86.6412,21.2
86.6453,209.2
86.6814,149.7
86.7066,450.5
86.7412,199.5
86.7436,18
86.7524,259.6
86.7606,808.2
86.7643,161
86.7728,132.9
86.7742,92.8
86.8255,99.3
86.8463,141.3
86.857,141.6
86.895,160.5
86.9135,210
86.9525,93.3
86.9619,19.2
86.9998,576.4
87.002,19.7
87.03,115.6
87.0388,85.8
87.0391,84.8
87.0946,200.2
87.0996,702.3
87.1133,344.6
87.1332,302.8
87.1583,434.3
87.1867,315.4
87.2444,49.1
87.2453,99.6
87.2499,53.4
87.2616,404.8
87.2656,216.3
87.2802,543.1
87.2835,101
87.2842,517.3
87.3177,136
87.3219,323.1
87.3556,228.5
87.3599,191.3
87.3843,288.2
87.3922,117.9
87.4028,511.1
87.4082,695
87.4216,134.3
87.4389,355.6
87.48,130.9
87.4867,596.2
87.4893,145
87.4979,405.6
87.5082,131.2
87.5977,85.6
87.6539,138.7
87.697,149.2
87.7002,225.8
87.7051,184.8
87.7072,48.8
87.7359,248.9
87.7377,118.2
87.7389,271.8
87.7401,16.7
87.772,276.5
87.8004,338.4
87.8055,523.8
87.8211,438
87.8568,18.1
87.8737,399.1
87.8792,442.1
87.9003,205.7
87.9111,101.7
87.9116,105.3
87.9248,334.6
87.9367,20.3
87.9681,22.8
87.9845,273.7
87.9864,611.5
88.0022,44.7
88.0179,622.6
88.0335,18.7
88.039,6835.3
88.1051,618.3
88.1218,291.3
88.1514,84.9
88.1547,601.1
88.1618,192.8
88.1789,21.5
88.1864,363.3
88.1936,87.3
88.1944,86.3
88.2059,536
88.2136,18.2
88.2241,441.2
88.3099,84.7
88.3482,367.7
88.3523,172.4
88.3913,613.1
88.4,19.5
88.4049,18.7
88.4195,176.4
88.4224,20.1
88.4373,179.6
88.4607,278.1
88.4881,81.9
88.4962,18.2
88.5622,674.3
88.5637,623.5
88.5648,154.5
88.5979,245.2
88.6477,205.7
88.6484,384.6
88.6823,148.8
88.6919,89.3
88.7323,149.1
88.7331,694
88.7469,255
88.7525,585.1
88.7543,322.5
88.7576,724.8
88.7595,474.8
88.7653,95.3
88.8084,85
88.8103,275.7
88.8195,308.4
88.8332,482.3
88.8408,265.6
88.857,338
88.9524,176.1
88.9811,381.2
88.9854,705.6
89.0178,824.1
89.0193,101.5
89.0224,18.5
89.0398,286.7
89.0569,436.9
89.1034,189.4
89.1204,643.6
89.1883,879.2
89.1893,97.8
89.2394,18.4
89.2602,528.5
89.3053,579.8
89.4148,106.7
89.4294,436.5
89.4342,407.1
89.4495,467.3
89.4623,95.5
89.4644,127.4
89.4709,190.5
89.4748,84.3
89.5008,92.6
89.5303,581.1
89.5364,335.4
89.5635,85.2
89.6029,18
89.6066,513
89.6145,616.7
89.635,20.3
89.6395,172.7
89.6461,546.6
89.7034,311
89.7073,165.1
89.7101,397.5
89.711,131.2
89.7369,589.3
89.752,84.7
89.7842,132
89.7959,106.1
89.898,250.3
89.9048,90.7
89.947,365.3
89.9481,407.7
89.9505,33.2
89.9635,445.7
89.9715,408.1
89.9783,462
90.0068,206.3
90.0083,127.5
90.024,166.9
90.0255,86.4
90.0758,16.1
90.078,625.6
90.1029,17
90.151,97.9
90.2282,243.8
90.2412,339.1
90.2646,17.9
90.3133,115.8
90.323,133.8
90.3791,76
90.4056,177.8
90.4183,447.5
90.4232,184
90.4263,457
90.4394,222.8
90.4544,309.9
90.4579,263.3
90.4623,135.9
90.4647,21.3
90.4713,499.6
90.4878,480.4
90.4884,203.1
90.5707,384.3
90.5799,227.3
90.6346,653.8
90.655,151.2
90.6961,157.8
90.7286,99.9
90.7607,127.2
90.7899,149.9
90.7995,297
90.8057,698.2
90.8169,230.3
90.8245,500.9
90.8547,87.2
90.8786,143.2
90.903,92.9
90.9437,473.8
90.9475,3707.4
90.9764,7007.6
90.9796,155.9
91.0267,258.3
91.0335,147.8
91.0484,20
91.054,1630.2
91.1062,299.9
91.1084,242.5
91.1814,129.2
91.2031,349.1
91.2407,43.1
91.2661,452.3
91.2691,146.1
91.2978,171.8
91.3019,440.7
91.3046,75.2
91.3149,16.8
91.3181,511.4
91.3325,763.7
91.3476,112.6
91.3882,118.5
91.4478,92.4
91.4591,654.6
91.4613,129.5
91.4875,498.6
91.5109,470.5
91.5208,515.5
91.5297,147
91.5411,98.1
91.5421,165
91.5456,96.1
91.546,97.4
91.551,21
91.5555,266.6
91.6081,130.2
91.6439,125
91.6553,18.7
91.6837,106.9
91.6949,671.2
91.742,110.2
91.7449,662.2
91.7555,243.7
91.7883,1124.8
91.8043,716.4
91.8093,226.4
91.8447,102.2
91.8488,118.4
91.8562,227.2
91.8617,480.9
91.8954,206.7
91.9479,23.7
92.0193,646.7
92.0284,959.2
92.0492,176
92.0553,163.9
92.1246,131.3
92.1291,95.2
92.1567,548.7
92.1575,624.1
92.1815,357.4
92.1833,273.4
92.1858,293.5
92.2049,279.7
92.2086,18.7
92.2157,293.4
92.237,102.3
92.2584,355.7
92.2721,518.4
92.3056,308.1
92.3086,17.1
92.3278,548
92.3287,20
92.3324,223.2
92.386,21.4
92.3936,145.4
92.411,154.1
92.4431,206.1
92.4661,431.5
92.4851,95.1
92.4971,268.6
92.6597,149.4
92.6749,142.2
92.7055,321.6
92.7083,103
92.7277,140.8
92.7334,439.7
92.7511,20.1
92.7553,745.8
92.7681,223.8
92.7801,313.2
92.8181,121.4
92.8445,478.4
92.853,675.5
92.8636,18.3
92.8987,18.2
92.9002,308.4
92.9172,127.1
92.9713,669.5
92.9984,92.1
93.0054,560.3
93.0125,488.4
93.0292,470.5
93.0303,467.3
93.0336,328.9
93.0526,95
93.0571,101
93.0696,72.4
93.077,140.7
93.1387,420.7
93.1555,19.5
93.1657,109.1
93.1779,542.6
93.2144,96.3
93.2454,116.4
93.2589,186.1
93.2764,406.9
93.3033,42.4
93.3385,116.2
93.3685,329
93.3722,128.2
93.4273,84.7
93.4808,131.7
93.5006,458.2
93.5062,155.9
93.5442,44.5
93.5564,18.3
93.5663,301.5
93.5716,412.8
93.5927,24
93.6382,144.3
93.6506,233.4
93.6659,17.6
93.6826,175.8
93.7238,464.4
93.7315,258.4
93.7337,460.5
93.739,305.5
93.7506,17.3
93.7754,469.1
93.7891,20.5
93.8036,373.1
93.83,89
93.8387,214
93.8461,201.4
93.8609,358.6
93.8915,431.9
93.9243,47.1
93.9365,556.5
93.9803,135.9
93.9877,17.4
93.9913,443.7
93.9939,413.7
94.0108,87
94.0186,602.8
94.0411,60642.8
94.0466,22.2
94.0544,16.2
94.0649,20
94.0669,130.9
94.0691,367.2
94.0703,91.7
94.1055,522.1
94.1073,239.3
94.1813,50.9
94.2077,105
94.2147,18.1
94.2944,87.2
94.2963,87.3
94.3082,20.1
94.3232,526.5
94.3246,89.9
94.3404,92
94.3713,146.2
94.3742,289.3
94.4045,521.1
94.4118,129.1
94.4202,314
94.4415,16.7
94.4474,135.9
94.4789,374.8
94.4934,157.9
94.5079,45.7
94.518,137
94.5374,180.7
94.5442,117
94.5499,304
94.5573,750
94.5873,90.8
94.594,198.1
94.5944,272
94.6058,617.3
94.6116,260.9
94.626,155.7
94.6361,19.2
94.6388,381.5
94.6436,18.3
94.6582,642
94.6727,580.7
94.6971,179.3
94.7523,508.6
94.7692,16.7
94.7744,365.1
94.7758,130.5
94.792,366.5
94.795,133.6
94.831,100.4
94.8888,19.7
94.9499,88.4
94.9722,90.1
94.9886,154.8
94.9919,375.1
95.0136,132
95.0444,1976.3
95.047,46.4
95.0489,393425.2
95.0503,356.4
95.0516,34
95.0552,575.7
95.0624,29
95.0852,697.1
95.0892,126.3
95.0932,759.4
95.0957,136.4
95.1188,496.4
95.1273,354.1
95.1545,212.6
95.2014,206.2
95.2163,140.2
95.2181,460.1
95.2606,117.7
95.2636,16
95.2672,145.9
95.3193,83.2
95.3247,20.8
95.3857,448.5
95.4002,90.6
95.4212,492.7
95.4325,90
95.4522,304.9
95.4633,16.7
95.4813,19.8
95.4838,632.2
95.4912,141.7
95.5118,94.7
95.5176,146.5
95.5393,150
95.5726,401.9
95.577,534
95.5911,464.7
95.6016,585.7
95.6122,318.2
95.6346,187.3
95.6582,137.9
95.6592,21.2
95.7644,484.5
95.7872,17.1
95.8178,90.4
95.8394,117
95.8501,164.3
95.8532,159.2
95.863,19.3
95.8681,494.3
95.8705,508.5
95.8872,278.5
95.902,43.4
95.9246,137.7
95.9298,194.2
95.9503,164.1
95.9707,187.7
95.9773,94.7
95.9813,590.5
96.0066,424
96.0315,181.8
96.0326,207
96.0413,154.5
96.0523,18606.2
96.0724,194.9
96.0789,370.2
96.0845,106.5
96.1522,262.3
96.1693,105.5
96.173,209.4
96.1755,559.4
96.1793,46.1
96.1981,46.8
96.2046,669.6
96.2095,17
96.2107,16.8
96.2192,563.3
96.2336,79.9
96.24,95.4
96.2421,303.8
96.2436,78.7
96.2904,18.5
96.3192,129.8
96.3299,369
96.3502,90.7
96.3559,494.4
96.4739,19.5
96.5028,266.9
96.5091,183.8
96.5166,283.7
96.557,110.4
96.6044,195.1
96.6131,297.6
96.614,91.6
96.6454,163.4
96.647,113.4
96.6482,116
96.6563,470.4
96.6878,296
96.6916,183
96.7039,578.9
96.7272,90.2
96.7296,81.9
96.7724,17.8
96.7769,96.3
96.7979,173.1
96.8241,324
96.8664,261.8
96.8718,21.2
96.9216,136599
96.9374,195.6
96.9571,524.1
96.9855,18.6
96.9934,517.7
97.0009,18.5
97.0073,85.2
97.0104,53.3
97.0124,112
97.0366,315.2
97.0415,19.4
97.0531,26.6
97.0557,102
97.0626,466
97.1009,57.7
97.1032,268.1
97.1354,166.9
97.1499,576.4
97.1597,486.1
97.1725,140.3
97.1819,83.7
97.1841,137.2
97.2175,104.2
97.2237,175
97.2483,770.9
97.2605,124.6
97.2753,369.9
97.2934,587.8
97.2985,396.8
97.3199,119.5
97.3796,99.6
97.4108,97.4
97.4159,154.7
97.4261,485.3
97.4274,511.9
97.4348,177.8
97.4554,168.8
97.4645,662.4
97.4786,566.8
97.4818,138.1
97.5505,81
97.5849,366
97.6046,259.2
97.6166,497.2
97.7274,156.2
97.7765,404.4
97.8226,126.3
97.9386,179.4
97.9614,380.5
97.9687,18.4
97.974,17.4
98.0045,106.4
98.062,394.3
98.1186,411
98.1277,432.6
98.1547,565.4
98.1558,282.7
98.184,154.1
98.2118,130.8
98.2369,363.1
98.2484,640.2
98.2759,248.5
98.3315,120.8
98.4305,95.5
98.4342,145.6
98.4354,19.3
98.4476,124.4
98.4509,127.3
98.4574,21.8
98.4831,278.1
98.4844,212.5
98.5214,92
98.5824,110.3
98.653,461.8
98.6584,261.9
98.7391,609.2
98.7443,111.3
98.7582,179.3
98.776,464.5
98.8058,163.5
98.8258,83.7
98.8459,182.5
98.8469,209
98.8581,225.9
98.9151,726.7
98.9186,43126
98.9197,5921
98.9657,279.7
98.9751,6521.3
98.984,37.5
99.0028,520.3
99.0247,116.7
99.0549,355.7
99.0704,102.5
99.0946,18.6
99.1151,76.8
99.1347,599.6
99.1666,499.7
99.1772,563.3
99.2007,637.8
99.2042,81.9
99.2132,607.4
99.2135,618.4
99.2577,581.9
99.2649,405.6
99.2787,523
99.3038,262.4
99.3322,78.9
99.3479,338.2
99.3506,145.8
99.3916,274.7
99.4017,92.2
99.4183,145.7
99.4596,520.9
99.4743,115.4
99.4807,323.7
99.4977,491.1
99.4995,732.3
99.5181,140.7
99.5932,135.3
99.6338,235.7
99.6761,514.6
99.6871,341
99.7136,293.1
99.7391,18
99.7511,84.1
99.7533,80.1
99.766,150.9
99.78,210
99.787,19.1
99.7947,533.1
99.8113,115.6
99.8241,335.6
99.831,307.5
99.8598,91.1
99.8865,129
99.8999,711
99.9143,147.3
99.9453,312.6
99.9565,348.5
99.9608,446
99.9625,550.8
99.9656,126.5
99.9715,20.7
99.9779,609.6
99.9831,147.9
99.9896,103.3
99.9982,279.3
100.0227,46.3
100.0269,434.1
100.0754,22.8
100.0826,222.5
100.0978,185.4
100.1244,314.6
100.1865,733.5
100.1981,388.6
100.2695,88.3
100.2848,136.4
100.3199,84.7
100.3306,118.1
100.3391,704
100.353,197.5
100.3649,91.3
100.3719,181.5
100.3811,381.9
100.3921,120.5
100.4365,147.9
100.454,517.9
100.4642,505.3
100.4701,316.9
100.4746,93.5
100.5214,132.5
100.5255,665.5
100.5342,340
100.5419,118.5
100.5834,529.6
100.6094,563
100.6179,181.5
100.6475,163.6
100.6589,216.3
100.7092,95.5
100.7415,171.6
100.76,612.9
100.8198,79.8
100.8345,431
100.8551,347.9
100.8605,406.5
100.8696,558
100.8725,118.5
100.8975,228
100.9145,492.1
100.9168,1239.7
100.9724,371.3
100.9808,349.8
100.9844,21.6
101.0019,16.9
101.0243,115.8
101.03,660.8
101.047,615.9
101.0508,289.9
101.0707,1466.6
101.0778,730.2
101.1065,358.4
101.1133,486.7
101.1154,88.7
101.2215,129.5
101.2986,150.3
101.304,415.3
101.3266,112
101.356,691.9
101.4679,21.6
101.4963,335.3
101.5192,151.4
101.5389,253.2
101.5443,217.2
101.5777,369.4
101.6248,648
101.6265,15.8
101.6373,355.1
101.641,284.8
101.6438,562.3
101.6457,477.1
101.6532,189.5
101.7069,83.6
101.8739,99.7
101.8934,42
101.9159,833
101.9519,42.3
101.9635,288.5
101.9892,95.5
102.0239,159.8
102.0288,17.9
102.0409,162.7
102.0458,410.1
102.0548,3553
102.0651,349.2
102.0663,124.3
102.07,258.8
102.075,473.6
102.0932,405.9
102.1088,80
102.1126,18.9
102.1664,176.8
102.1925,367
102.1988,107.1
102.2004,479.7
102.2452,502.9
102.2491,723.3
102.2596,129.1
102.3171,86.2
102.3389,472.1
102.3472,144.1
102.3721,563.8
102.375,16.1
102.5105,206.2
102.5435,364.8
102.5512,18.9
102.6558,307.2
102.6793,459.2
102.6957,144.2
102.7025,18.8
102.7361,359.8
102.7657,518.2
102.7843,321.1
102.8192,322.9
102.8215,300.7
102.8269,381.7
102.8929,255.3
102.9147,119.9
102.9329,517.9
102.9474,45.3
102.9507,536.4
102.953,511.9
102.9678,171
102.9701,383.9
102.993,147.7
103.0089,428.6
103.0167,78.6
103.054,861.6
103.0662,507.4
103.0889,472.7
103.1025,651.8
103.1407,42
103.1509,110.1
103.1558,16.5
103.171,766.8
103.1793,79.1
103.1864,88.7
103.2783,293.4
103.2804,18.5
103.2815,94.5
103.3424,543.6
103.3439,370.1
103.3795,360
103.403,84.3
103.416,97.5
103.4178,17.2
103.4402,452.5
103.4692,166.6
103.475,665.4
103.5043,92.3
103.5053,111.7
103.568,795.2
103.6742,73.4
103.7327,277.6
103.739,18.7
103.7422,93.8
103.7547,162.5
103.7955,475
103.7972,21.9
103.8106,49.4
103.8324,17.7
103.8844,134.7
103.893,174
103.9234,86.9
103.9386,159.3
103.9791,611.5
103.9845,200.3
103.9921,378.2
104.0042,99.1
104.0257,446.3
104.0392,49.9
104.0713,282.8
104.0724,19.3
104.0829,165.5
104.0895,49.5
104.1068,414526.9
104.1103,671.9
104.1338,510.7
104.1384,356.6
104.142,17.6
104.164,138.1
104.1679,217.5
104.1766,481.1
104.1973,421.2
104.2002,221.6
104.22,193.7
104.2304,91.7
104.2737,87
104.2889,17.3
104.3202,113.8
104.3321,182.8
104.3376,578
104.3465,285.4
104.3932,98.6
104.4203,117.9
104.4264,134.6
104.4508,236.1
104.4796,520.6
104.5217,347.3
104.5491,148.9
104.5732,492.2
104.5889,127.4
104.6207,747.4
104.6233,312
104.6891,18.4
104.6965,16.8
104.7396,444.9
104.811,48.2
104.8211,101.2
104.8305,267.5
104.8869,128.8
104.9001,540.6
104.9076,17.7
104.9198,782.3
104.9479,207.8
104.9572,238
104.9631,5086.5
104.9872,299.5
104.9922,821.7
104.9939,520.2
104.9949,513.3
104.9977,133.7
105.0201,176.9
105.0386,185
105.0445,35787
105.1101,12750.9
105.1123,86.3
105.1567,466.6
105.2851,74.9
105.3078,23.3
105.309,671.4
105.3337,137.3
105.3699,96.3
105.3758,1008.6
105.4006,163.5
105.4496,21.5
105.4655,18.5
105.4994,19.8
105.658,290.4
105.6878,84.7
105.694,301.7
105.7111,19.1
105.7575,102.6
105.8134,251
105.828,17.3
105.8309,42.2
105.8642,694.2
105.8954,674.6
105.929,15.8
105.934,165.6
105.9483,660.6
105.9618,571.9
105.9818,87.5
105.9923,535.8
106.0479,303.5
106.0758,267.8
106.0908,88.9
106.1019,126.8
106.143,157.2
106.152,156.7
106.1573,571
106.1654,194
106.1675,335.5
106.1936,334.1
106.2378,184.5
106.2561,89.5
106.2762,154.8
106.2774,48.2
106.2969,263.7
106.3099,18.2
106.324,303.4
106.3524,403.6
106.4165,87.2
106.4232,486.4
106.4277,405.8
106.4691,23
106.48,16.3
106.6104,266.9
106.6419,174.7
106.6985,17.6
106.724,365.1
106.7408,295.3
106.7444,48
106.7657,91.3
106.802,167.2
106.8434,17.3
106.8478,119.5
106.854,90.7
106.866,278.2
106.8917,571.1
106.9135,87.7
106.9294,752.9
106.9381,492.4
106.9434,41.7
106.9504,2536.5
106.9559,389.9
106.9636,119.9
106.966,107.2
106.9924,138
107.0149,540.4
107.0246,219.6
107.0281,87.9
107.0296,139.5
107.0489,343.9
107.0595,95.9
107.0853,252.5
107.0953,386.6
107.1098,89.4
107.1187,103.1
107.1439,84.8
107.2172,102.6
107.222,374.6
107.2561,314
107.2585,280.3
107.2702,162.8
107.2785,89.6
107.3009,49.4
107.3187,443.2
107.3454,180.2
107.371,84.3
107.4074,113.9
107.4123,132.3
107.4169,752.7
107.4177,135.9
107.4486,443.6
107.4559,81.2
107.4721,46.9
107.4823,214.2
107.486,416.6
107.5416,189.2
107.581,309.5
107.6021,240.2
107.6147,325.5
107.6809,466.8
107.6963,621.2
107.7163,99.5
107.7229,155.5
107.7305,169.5
107.8107,641.1
107.8559,86.5
107.8618,290
107.874,123.7
107.9012,266
107.9176,476.9
107.9474,295.9
107.9628,571.2
107.9658,240.9
108.0182,114.5
108.0236,85.2
108.0422,481.6
108.0445,84.9
108.1199,330.2
108.1254,134.8
108.1562,662.7
108.1728,557.4
108.199,707.5
108.2056,18.3
108.2391,204.7
108.2404,144.2
108.2484,521.7
108.2499,605.5
108.2524,117.3
108.2635,19.7
108.2668,134.5
108.2942,370.1
108.3354,511.9
108.3703,16.7
108.3822,157.1
108.403,104.4
108.4302,20.1
108.4839,150.2
108.517,278
108.5423,470.3
108.5548,93.8
108.603,373.6
108.6101,501.9
108.6396,354.9
108.6442,117.7
108.653,537.9
108.6793,491.6
108.6832,474.5
108.7217,101.4
108.7728,147.3
108.7774,84.2
108.8064,166.6
108.883,238.8
108.8854,183.2
108.898,538.8
108.9093,101.6
108.9168,630.9
108.9564,105.3
108.958,125.3
108.9707,548.1
108.9828,163.5
108.9981,18.9
109.0105,19.8
109.0281,185.5
109.0499,118.8
109.0646,68544.3
109.1009,49.3
109.139,164.2
109.159,293.4
109.1619,16.1
109.1915,271.2
109.218,20.1
109.2726,555.6
109.295,259.8
109.3368,92.1
109.3431,90.8
109.3626,127.3
109.3835,305.5
109.4094,753.2
109.4215,90.6
109.4479,487.2
109.4845,138
109.5042,199.8
109.515,16.3
109.5293,172.5
109.5401,507
109.5791,174.6
109.5964,134.4
109.6245,451.3
109.6391,582.3
109.6547,520.3
109.7202,271.2
109.7462,635.6
109.7653,325.4
109.8153,160.2
109.8418,20.6
109.8627,76
109.909,143.2
109.9493,136.4
109.9523,307.4
110.0281,94.8
110.068,2083.8
110.0711,1018.3
110.0724,656.8
110.0766,83.3
110.0789,164.4
110.0861,78.1
110.0964,107.9
110.1099,137.6
110.1184,239.1
110.1342,353.5
110.1605,243.8
110.2704,510.8
110.2761,114.1
110.3536,570.2
110.3664,16.2
110.4328,121.3
110.4445,305.1
110.4491,135.7
110.4528,654.8
110.4931,22.4
110.5025,570.7
110.5049,582.1
110.5253,438.7
110.5256,433.6
110.5644,103.1
110.5683,20.6
110.6054,547.9
110.607,368.3
110.6165,138
110.6418,75.6
110.6455,632.6
110.6506,73.3
110.6758,143
110.6892,79.9
110.7196,46.4
110.7332,148.4
110.7392,640
110.7462,609.7
110.7648,111.8
110.8195,102.8
110.8316,178.3
110.8396,303
110.9238,89.9
110.93,135.8
110.9543,85.7
110.9712,361
110.9849,177.9
110.9918,15.9
111.0074,20.2
111.0108,255.5
111.023,310.2
111.028,241
111.0438,193.6
111.0713,20.4
111.1382,193.7
111.1549,97.2
111.1562,285
111.1652,321
111.1675,209.1
111.255,151.2
111.3768,168.9
111.4164,471.8
111.4369,17.4
111.5071,277.5
111.5113,356.9
111.6771,94.4
111.6793,99.6
111.7129,84.8
111.7242,127.7
111.7291,348.1
111.7492,19
111.7664,166
111.7753,98.2
111.7964,172.4
111.8027,227.3
111.8072,131.7
111.81,115
111.8318,122.4
111.8463,93.8
111.8568,115.7
111.8751,684.2
111.8859,132.9
111.9056,260.1
111.952,202.4
111.9581,133.5
111.9763,180.1
112.0192,81.4
112.0316,243
112.0598,162.4
112.0994,407.6
112.1165,153
112.1442,378.5
112.1895,152.4
112.1928,338.8
112.2101,102.1
112.2529,310.9
112.2721,17
112.3098,83.3
112.3188,411.6
112.3215,82.1
112.3437,16.5
112.3861,691
112.4002,211.8
112.4106,19.1
112.4142,735.6
112.4514,436.8
112.4829,42.1
112.4927,88.9
112.5068,300.8
112.5622,80.8
112.5698,127.7
112.5762,19
112.605,542.2
112.6419,117.2
112.6528,229.6
112.6978,108.7
112.7045,149.8
112.7173,677.6
112.7772,625.6
112.7885,391.7
112.8265,762.8
112.8391,183.4
112.8445,133.3
112.8535,262.8
112.8658,96.3
112.8956,411893.3
112.9383,296.8
112.9451,170.7
112.9579,164
112.9595,472.8
113.1072,578.9
113.1342,264.4
113.1519,520.3
113.2004,121.9
113.2479,629.7
113.2811,212.9
113.2958,498.5
113.3073,152.6
113.3253,183.3
113.336,111.1
113.349,731.1
113.3771,571.4
113.3955,300.3
113.4041,232.9
113.4192,549
113.4495,160.2
113.4531,314.6
113.4604,19.2
113.4904,400.6
113.4991,150.4
113.5413,168.6
113.5778,157
113.6348,719.2
113.6584,495.3
113.7425,575.2
113.7508,646.8
113.8341,263.6
113.8441,100.1
113.8717,83.7
113.8856,398.8
113.9229,273.1
113.9624,18.9
113.9635,18.5
113.9763,23.1
113.9866,516.9
114.007,79.6
114.0548,37515.9
114.066,1325
114.0913,27.6
114.1745,755.7
114.1903,111.5
114.254,224.5
114.2723,19.5
114.3798,547.2
114.4106,135.4
114.4361,413.2
114.4719,518.5
114.4948,133.4
114.497,153.4
114.505,283.8
114.5234,212.2
114.5627,157.1
114.6621,597.8
114.7864,84.9
114.8441,158.4
114.8766,148.5
114.8926,128383.3
114.9326,249.4
114.948,636.8
114.9748,278.8
115.0008,104.3
115.0104,100.3
115.023,99.9
115.0421,532.1
115.0582,499.1
115.0716,175
115.1255,589.2
115.1612,186.5
115.1703,317.7
115.196,134
115.2095,80.7
115.2205,315.7
115.2582,687.3
115.2794,104.8
115.2864,19.1
115.3225,594.7
115.3579,22.6
115.3683,601.8
115.3757,258.7
115.3798,614.4
115.415,718.4
115.4159,195.4
115.4445,19.5
115.4455,575
115.4493,540.3
115.4561,167.8
115.4664,43.8
115.4706,94.8
115.4755,140.7
115.526,87
115.5589,17
115.6791,17.6
115.6818,649.9
115.7299,438.5
115.7732,87.2
115.7856,147.6
115.8713,311.4
115.9239,103.9
115.9792,648.6
115.9927,305.6
116.0011,98.4
116.0474,19.9
116.0704,5327
116.0997,99.7
116.1046,224.9
116.1209,360.3
116.155,101.5
116.1567,729.4
116.1593,133.3
116.1637,19.4
116.1828,149.6
116.1941,730.6
116.2079,249.3
116.2347,134.3
116.3163,328.2
116.3584,128.6
116.3651,612.2
116.4784,90.7
116.4847,146.3
116.5271,522.2
116.7238,86.6
116.727,477.3
116.801,17
116.8907,11644.1
116.9072,644.7
116.9131,18.2
116.9244,89.9
116.959,16.7
116.9631,84.3
116.9835,28.1
116.9859,753.5
117.0026,644.6
117.0133,220.1
117.0697,70.2
117.0759,18.1
117.0829,315.1
117.0899,310
117.0949,131.3
117.1056,558.6
117.1127,517.7
117.2012,462.5
117.2187,817.2
117.2552,616.1
117.3121,363.5
117.368,166.8
117.4009,795.5
117.4022,276.1
117.4171,492.3
117.441,149.6
117.5145,477.9
117.5479,728.9
117.595,107
117.6292,17
117.6485,47.9
117.6792,140.3
117.7074,297
117.7301,482.8
117.7982,349.7
117.8076,18.2
117.8379,120.4
117.8488,142.5
117.9038,313.2
117.9069,392.4
117.9089,594.8
117.9455,25.8
117.9517,108.5
117.9886,107.8
117.992,117
117.9948,25.2
118.0616,474.9
118.0659,164.4
118.079,268.2
118.0868,164.6
118.1876,104.4
118.2051,99.1
118.2122,532
118.2384,135
118.2453,19.7
118.2622,346.4
118.3048,690.8
118.3221,399.1
118.3276,307.3
118.3507,100.3
118.3549,671.9
118.3597,637.1
118.3711,347.6
118.3942,526.1
118.4207,19.7
118.4281,48.8
118.442,18.4
118.4871,156.1
118.489,297.2
118.5082,169.8
118.5448,635.5
118.5832,144.7
118.6518,89.9
118.653,125.1
118.6573,555.4
118.7212,681
118.7574,21.4
118.7785,126.1
118.7853,479.2
118.8596,133.3
118.9424,822.9
118.9477,144.5
118.957,1292.4
118.9788,912.7
119.0179,138.5
119.0194,141.7
119.0277,458.9
119.0436,182.3
119.0661,293.2
119.0853,26.8
119.1474,17.7
119.1745,164.3
119.2,195.8
119.2314,512.3
119.2499,100.4
119.2754,222.1
119.3442,50.7
119.3669,90.6
119.4919,344.3
119.5221,139
119.6055,81.1
119.6645,285.8
119.6886,529.4
119.6986,222.3
119.7055,92.5
119.7276,106.3
119.7761,153.1
119.8198,533.7
119.8241,43.4
119.8651,292.3
119.8841,204.6
119.8856,511.4
119.8895,195.3
119.9306,672.8
119.9501,102.7
119.9553,539.5
119.9766,475.8
119.9858,522.1
120.003,6419.9
120.0223,712.7
120.0232,149.7
120.0382,156.6
120.0707,148.8
120.0806,22358.1
120.1109,188.7
120.1276,107.2
120.1358,405.8
120.1717,89.3
120.1961,117.2
120.2297,89.4
120.2704,722
120.2931,563.9
120.2974,138.7
120.3037,286.4
120.3813,506.6
120.3988,95.3
120.4065,19.3
120.4101,18.5
120.413,127
120.4177,95.9
120.4278,189.8
120.4644,767.1
120.4924,110.1
120.6153,176.6
120.6199,707.3
120.6974,213.7
120.7185,265.1
120.7874,316.7
120.7906,229.5
120.8588,583.9
120.8636,296.9
120.8675,280.7
120.8691,306.1
120.8895,327
120.9486,19.8
120.9513,20.2
120.956,249.5
120.9631,440.6
120.9793,67.1
120.9807,76
120.9831,247.1
120.9912,270.6
120.9977,163.1
121.0074,215.2
121.0283,260.4
121.0395,26.7
121.1436,103.6
121.247,568
121.3644,129.5
121.3692,51.8
121.4082,712.1
121.4139,207.5
121.4345,91.7
121.4443,127.8
121.4567,539.9
121.4792,184.1
121.4893,87
121.5077,167.8
121.539,293.1
121.7333,513
121.7535,611.9
121.7975,149.1
121.8026,294.5
121.8519,305.6
122.0063,593.2
122.0698,89.7
122.0895,684.5
122.1094,355.3
122.1506,599.4
122.1725,133.5
122.1847,235.7
122.1907,676.5
122.2833,820.8
122.3116,144.3
122.3643,184.2
122.3952,381.7
122.3989,361.2
122.4269,155.6
122.4555,574.1
122.4833,110.7
122.5391,103.7
122.5954,18.5
122.677,520.6
122.699,719.3
122.7092,550.8
122.7244,202.5
122.7434,278.3
122.7495,411.5
122.7632,130.9
122.8677,395.6
122.9102,260.8
122.9244,20023
122.9289,45
122.9417,18.3
122.9435,79.5
122.9738,199
122.9974,104.1
123.0017,478.5
123.0284,489.6
123.0691,597
123.0803,50
123.0815,514.7
123.1163,398.5
123.1736,343.8
123.1774,365.7
123.1798,304.9
123.2064,173.9
123.2156,587.3
123.2479,230
123.2553,17.5
123.2571,348.1
123.3056,216.5
123.3534,19.9
123.4294,20.8
123.4672,21.2
123.4969,482.2
123.5309,609.8
123.5634,488
123.577,116.5
123.7081,130.5
123.7463,341
123.763,119.4
123.7662,577.8
123.7903,130.9
123.8316,318.3
123.8817,501.5
123.9423,94.3
123.9633,16.8
124.0036,576.8
124.0225,91.4
124.0346,128.5
124.0457,290.2
124.0659,18.1
124.0701,241.6
124.1238,634.3
124.1254,690.6
124.1331,184.3
124.2132,492.5
124.216,343.6
124.2961,110.3
124.3064,278.4
124.4208,411.7
124.4361,99.8
124.4478,266.9
124.4573,183.2
124.5545,219.3
124.5594,50
124.5758,252.1
124.5875,709.9
124.6089,50.3
124.6359,17.4
124.7129,98.4
124.7834,50.5
124.7855,496.9
124.8405,135.9
124.9064,634.6
124.9225,2556.8
124.9844,1316.6
124.9997,6604.4
125.0054,1140.5
125.0388,183.7
125.0533,231.3
125.0607,662.9
125.0705,232.8
125.1066,338.9
125.1446,606.8
125.3377,333.6
125.3481,275.5
125.4103,106.4
125.4391,689.4
125.4461,744.8
125.481,98.6
125.5478,17.8
125.6741,304.2
125.7855,127.8
125.8104,100.6
125.847,92.6
125.8752,441.5
125.8815,610.8
125.8862,640.1
125.8917,84.6
125.909,319.5
125.913,22.9
125.9221,533.5
125.9846,25.9
125.9999,84.9
126.0015,106.1
126.0094,152.4
126.0275,50
126.0914,105.3
126.1329,89.7
126.1417,191.4
126.1503,418.1
126.1638,690
126.1701,355.7
126.1882,277.9
126.2215,139.9
126.2486,20.8
126.2579,368.9
126.2732,20
126.287,708.9
126.2938,227.8
126.3464,18.2
126.3809,636
126.3868,376.4
126.3884,16.7
126.3935,739.8
126.4829,546.3
126.5345,646
126.5457,401.4
126.6144,239.8
126.6393,81.7
126.6699,162.5
126.7166,193.1
126.7206,113.8
126.7792,293.8
126.9288,188.1
126.933,117.6
126.9455,474.7
126.985,200.6
126.9898,276.7
126.9961,738.5
127.0078,19.9
127.0091,140
127.0308,110.2
127.0476,284.6
127.1002,176.5
127.1009,171.3
127.1119,531.7
127.1557,714.7
127.1722,547.2
127.2324,379.2
127.246,111
127.2473,86.2
127.2722,233.8
127.3512,17.2
127.3762,80.1
127.4079,361.3
127.4251,197.8
127.4267,88.1
127.4704,534.4
127.5011,81.4
127.5052,158.3
127.5219,89.2
127.5715,281.7
127.609,493.2
127.6154,129.5
127.6246,19.6
127.6816,527.2
127.6834,128.2
127.7037,242.6
127.7327,135.7
127.7644,424.6
127.8664,469.3
127.9132,237.4
127.9185,17.2
127.9503,22
127.9529,201.8
127.9721,84.8
128.0156,52.7
128.0315,21.7
128.1004,549
128.1227,121.8
128.2025,369.6
128.2307,95.5
128.2485,399
128.2752,300.9
128.2796,419.7
128.3642,328
128.4291,177.2
128.4651,333.7
128.4862,415.7
128.5867,804.2
128.6043,196.7
128.6473,554.9
128.6804,602.3
128.6906,202.1
128.7341,319.6
128.7631,506.8
128.7788,85.2
128.808,101.9
128.8653,98.8
128.8984,90
128.9208,141.6
128.9642,758.7
128.973,549.5
129.0285,118.3
129.0429,603.3
129.0783,298.3
129.1021,2870.6
129.1348,87.4
129.1382,16.5
129.1539,153.3
129.2018,244.5
129.23,524.8
129.3019,248.6
129.3452,409.8
129.3981,20.9
129.4032,20.8
129.4175,17.7
129.5015,295.8
129.546,573.9
129.5492,462.3
129.5556,185.3
129.5588,129.2
129.606,467.5
129.6502,178.2
129.6628,158
129.7288,766.7
129.7899,741.7
129.7967,423.3
129.8737,22.7
129.9194,534.7
129.9584,194.8
129.9818,220.5
129.9948,125
130.0176,93.3
130.0255,22.9
130.0432,180.1
130.0497,11614.4
130.0653,20.8
130.1147,16.8
130.1288,17
130.1348,95.7
130.1767,161.6
130.1824,765.4
130.25,175.1
130.2531,186.1
130.3563,85.2
130.3765,595.5
130.398,698.3
130.402,113.9
130.4074,202.2
130.4441,118.4
130.4658,110
130.4846,153.8
130.4944,116.5
130.5074,200.1
130.5112,126.8
130.6432,282
130.6945,140.3
130.7319,125.4
130.757,128.2
130.7904,106.7
130.8151,74
130.9326,18.4
130.9363,122.5
130.9385,17
130.9634,260.7
130.9789,47.7
130.9871,284.4
130.9979,153.4
131,130.8
131.0014,23.9
131.0159,45.9
131.0297,347.6
131.0305,591.6
131.0312,686.3
131.0372,342.6
131.0562,496.7
131.0739,451.1
131.1153,247.9
131.154,52.7
131.1876,103
131.207,27.3
131.253,329.2
131.2703,20.4
131.3309,964.6
131.3536,115.2
131.3777,84.5
131.4315,76
131.4452,50.1
131.463,84
131.5212,91.1
131.5236,22.2
131.5422,426.5
131.5777,108.4
131.5987,125.6
131.6428,608
131.6526,134.9
131.6616,116
131.7005,99.2
131.7182,632.6
131.7377,192.1
131.7664,19.3
131.8221,110.5
131.8232,321.1
131.873,633.7
131.8827,247
131.9333,503.7
131.9915,140.7
131.9949,80.4
132.0031,35612.4
132.0169,193.7
132.0199,275.5
132.0654,66558.4
132.0766,4423.9
132.0814,558.9
132.1018,52.4
132.1087,281.2
132.1314,19.2
132.1583,133.2
132.2133,165
132.2504,331.8
132.3279,20.1
132.3366,345
132.3465,94.3
132.3791,485.8
132.4467,425.1
132.5592,107.6
132.6175,283.4
132.6433,502
132.7268,20.8
132.7754,169.8
132.7852,122.1
132.8009,112.3
132.8023,547.1
132.8482,161.5
132.8907,325.6
132.9029,57.2
132.9052,168.3
132.9389,399.1
132.9581,827.9
132.9694,66.7
132.9871,4044.1
133.0115,142.2
133.0202,470.2
133.0314,449.5
133.0422,294.8
133.0467,157.2
133.0529,386.8
133.0688,1374
133.097,23497.7
133.1129,463.4
133.1156,18.9
133.1227,118.7
133.152,764.7
133.1887,172.3
133.2711,85
133.2795,169.3
133.3051,129.2
133.315,102.4
133.3348,148.5
133.3747,19.1
133.3775,188.6
133.3867,132.7
133.3889,299.5
133.544,17.5
133.5555,20.2
133.5857,511.5
133.6234,19.1
133.6314,339.2
133.6511,694.7
133.6615,99.7
133.763,17.3
133.77,115.7
133.7733,561.1
133.8382,152.4
133.8682,174.8
133.9178,17.6
133.9432,296.9
133.9445,703.2
133.9555,156.5
133.966,646.1
133.9814,29
133.9876,282.9
134.0067,456.6
134.0187,15878.1
134.0532,196.5
134.1601,449.7
134.2165,146.8
134.2267,18
134.2496,103.4
134.2539,181.9
134.3486,144
134.3502,141.2
134.4017,821.1
134.4749,188.7
134.5367,115
134.5909,88.3
134.6014,150.7
134.7125,163.5
134.7265,142.9
134.7596,227.3
134.8081,338.5
134.8347,578.3
134.8693,371.1
134.8733,502.2
134.9585,43.9
134.9677,94.3
134.9738,65
134.989,163.9
134.9902,368.4
135.0027,90003.9
135.035,134.7
135.0515,614
135.057,512.4
135.0795,103.5
135.0908,568.7
135.1348,254.6
135.1895,352.2
135.1975,17.7
135.218,87.9
135.2798,254.6
135.2836,569.3
135.2923,19.5
135.3177,541.4
135.3636,505.8
135.3852,299.3
135.4338,683.1
135.474,903.8
135.5068,131
135.5615,307.6
135.5955,97
135.5998,450.1
135.6384,649.6
135.7385,243.7
135.7408,19.1
135.7475,270.3
135.8867,123.1
135.8942,167
135.9181,89.8
135.977,4024
136.0005,429.8
136.006,974.4
136.0276,519.7
136.0446,569.2
136.048,9181.1
136.0551,322
136.057,292.8
136.0615,26.9
136.0756,17530
136.1345,621.3
136.1643,99.2
136.1923,151.8
136.2485,528.4
136.2506,16.3
136.271,167.6
136.303,130.3
136.3115,18
136.3355,161.6
136.3883,16.4
136.3933,90.9
136.4362,150.3
136.4802,349.3
136.5526,730.4
136.5793,18.1
136.6014,389.9
136.6514,19.4
136.6596,756.5
136.6639,117.4
136.7785,200.7
136.9057,351.1
136.931,1169.7
136.9531,171
136.9894,92.2
136.9974,18.9
137.0434,437.5
137.046,149.9
137.058,463.2
137.1321,278.1
137.1541,93
137.2229,669.6
137.2992,356.5
137.3269,258.2
137.4154,513.3
137.4751,565.7
137.5451,426.8
137.5591,463.4
137.5612,20.6
137.5624,693.5
137.6405,239.5
137.8034,318.5
137.836,365.3
137.9216,288.1
137.9489,22.2
138.0229,629.5
138.0524,6177.4
138.066,58.8
138.1171,636.8
138.158,706.7
138.1624,260.4
138.1841,176.7
138.2105,594.6
138.2211,711.9
138.2225,317.2
138.2351,143.2
138.2387,144.7
138.2639,21.4
138.2676,120.7
138.3638,175.8
138.4083,492.6
138.4512,312.7
138.5018,136.1
138.5076,151.5
138.5114,184.1
138.5193,46.4
138.527,124
138.5315,595.5
138.6105,343.2
138.6887,506.2
138.7175,90.7
138.7241,321.1
138.7709,96.4
138.7762,102.4
138.7813,506.7
138.8386,48.7
138.9063,1961.1
138.9131,416.1
138.9535,20.3
138.9719,220.4
138.9842,46.9
138.9916,375.2
139.0083,21.1
139.0265,167.2
139.0488,118.9
139.0633,144.2
139.1152,19.1
139.2958,610.5
139.3096,621.8
139.354,131.1
139.3828,240
139.4043,184.7
139.4084,161.6
139.4468,185.3
139.4533,233.4
139.4766,287.4
139.5297,18.4
139.5618,139.1
139.626,128.6
139.6517,80.9
139.6675,96.3
139.6967,418.9
139.7023,99.6
139.7834,463.1
139.8664,265.2
139.8797,135.8
139.9038,144.4
139.9739,165.8
139.9769,95.3
140.0098,120.2
140.0163,4180.3
140.0681,2644
140.0843,240.8
140.0924,183.7
140.1211,423.9
140.2216,257.1
140.2425,42
140.2535,17.5
140.2626,344.5
140.2902,21.8
140.3037,645.9
140.3565,993.7
140.5853,17.2
140.6095,21.7
140.6108,254.7
140.6729,18.5
140.6875,136.8
140.6983,652.7
140.7894,19.5
140.8336,533.7
140.892,364.7
140.899,403.1
140.9034,2217.7
140.9384,174.2
141.0004,17565.9
141.0197,170.5
141.0282,18.4
141.0575,165.3
141.0796,409.6
141.1026,283.5
141.1396,236.7
141.1582,268.6
141.2887,154.4
141.3236,558.8
141.3443,526.7
141.3487,107.1
141.4121,248.5
141.472,311.8
141.5093,685.6
141.5622,20.5
141.5699,172.1
141.6154,363.5
141.637,49.8
141.6646,17.8
141.696,200.8
141.7332,16.3
141.7584,103.4
141.7771,96.8
141.8728,311.4
141.895,22.8
141.9149,94.7
141.9259,709.3
141.9721,294.6
141.9936,193.9
141.9949,239
142.0037,315.4
142.0121,108.2
142.015,23.5
142.0226,21.7
142.0467,401.8
142.0553,495.3
142.0568,368.3
142.1066,555.5
142.1622,593.2
142.1992,22
142.2569,317.9
142.2755,140
142.3282,295.6
142.3888,704
142.4351,202.4
142.4865,791
142.4949,284.6
142.6718,194.3
142.7557,529.1
142.8007,49.9
142.9694,834.9
142.9731,503
142.9926,731.3
142.9962,263.4
143.0079,87.8
143.0615,94
143.0729,193.3
143.0814,21.8
143.1038,91.6
143.1261,166.2
143.139,153.4
143.2322,161.1
143.2349,300.1
143.2875,259.8
143.29,262.7
143.3009,157
143.3471,636.5
143.3754,622.7
143.3787,154.6
143.4134,424.1
143.4345,119.9
143.4439,20.7
143.4779,15.9
143.5943,21.5
143.6774,591.3
143.6824,291.1
143.7148,88.6
143.7719,303.1
143.8036,235.1
143.8215,151
143.8447,535.6
143.8753,192.2
143.8843,532
143.9817,98.2
143.9874,19.4
143.9954,109.6
144.0105,1031.9
144.0198,222.9
144.0466,540.9
144.0763,339.4
144.1032,18.5
144.1393,19.9
144.1418,172.9
144.1731,626.4
144.224,383
144.2482,331.5
144.3185,117.4
144.3401,426
144.3818,92.5
144.406,18.7
144.4252,601.1
144.485,82.4
144.4912,586.6
144.5235,263.8
144.5917,204.2
144.6419,300
144.6602,318.5
144.7371,428.8
144.7765,364.1
144.7928,273.5
144.8559,440.8
144.8608,47.5
144.8911,561.7
144.8941,21.5
144.8977,91.5
144.9069,91.2
144.9078,89.7
144.9805,1024.1
144.9946,36.4
145.0161,20.9
145.0414,356.6
145.1319,713.9
145.1709,18.1
145.1851,120
145.1968,142.8
145.2196,152.2
145.3519,260
145.3527,244.1
145.3649,87.1
145.5143,512.9
145.5753,262.9
145.5835,480
145.5961,88.3
145.6049,303
145.6642,92.9
145.7157,17.4
145.8422,132.7
145.9016,89.6
145.9214,259
145.9925,287
145.993,289
145.9976,745
146.0001,22.6
146.003,103
146.0066,21.3
146.0122,2357
146.015,673.8
146.0187,21147.7
146.0263,23.4
146.1107,412.2
146.153,799.2
146.3377,103
146.4558,108.6
146.5641,693.3
146.5873,18.2
146.6089,20.2
146.6883,460.6
146.7944,582
146.8129,343.5
146.8337,131.4
146.8576,93.3
146.8639,125.7
146.8953,171.8
146.9051,54.2
146.9312,435
146.947,572.9
146.9476,649.4
146.974,68.8
146.9817,93268.9
146.992,596.4
147.0201,104.4
147.0222,322
147.0275,190.8
147.0455,532
147.0763,75768.6
147.0906,20
147.1127,40562.5
147.1167,117.4
147.1514,470.5
147.1849,522.7
147.2447,183
147.2515,173.1
147.4213,123.7
147.4437,16.2
147.4461,120.1
147.5191,86.3
147.554,128
147.5881,46.7
147.6457,177.8
147.6732,545.1
147.7442,253.5
147.7547,538.4
147.7864,105.4
147.8176,17.9
147.8403,201.2
147.8573,780.2
147.87,17.7
147.8772,106.4
147.8931,90
147.9771,551.1
147.9903,119.5
148.0136,433.1
148.0531,16.8
148.072,84
148.0797,710
148.0955,202.5
148.0991,107.8
148.105,98.9
148.1105,16.1
148.1119,43
148.1733,142.6
148.2253,679.7
148.2621,288.9
148.3232,290.5
148.406,251
148.4314,401.3
148.4796,629.7
148.5321,794.5
148.5889,671.4
148.7218,113.7
148.749,127.7
148.7553,494.8
148.8272,16.3
148.8446,313.4
148.8518,135.5
148.8553,87.6
148.8713,169.3
148.892,105.5
148.9558,19.2
148.961,4294.5
148.9886,179.8
149.0129,491
149.0184,2311.6
149.0232,4358.7
149.0429,308.8
149.0448,59.2
149.1152,16.9
149.1878,352.1
149.4234,173.3
149.4315,90.3
149.449,139.1
149.4562,86.7
149.4752,50.9
149.4869,597.7
149.4974,725.7
149.5156,22.3
149.6611,110.3
149.6773,98.6
149.6925,334.2
149.7154,122.3
149.7724,131.3
149.8586,165.5
149.8864,92.5
149.9167,350.8
149.9238,509.6
149.9293,96
149.9376,519.1
149.9477,308.5
149.9762,20.8
149.9872,48.1
149.9927,9297.7
150.001,94.2
150.0137,7514.1
150.0264,24.7
150.0753,155.8
150.0896,125
150.1713,95.8
150.2273,20.5
150.2398,20
150.2755,438.4
150.2973,666.7
150.3129,93.9
150.4372,257
150.4831,47.7
150.5026,19.8
150.5449,207.5
150.5511,282.2
150.5566,120.5
150.6423,560.6
150.6513,466.5
150.7526,482.7
150.8736,549
150.8907,443.5
150.9438,152.7
150.9687,331.5
150.9767,58148.4
150.984,4620.7
150.989,92.8
151.0414,423.2
151.0478,1324.8
151.0613,21.3
151.1087,720.4
151.1337,776.8
151.2814,196.7
151.3084,475.2
151.327,26.1
151.3326,85.3
151.3784,363.2
151.3992,114.8
151.4106,21.2
151.4331,130.5
151.456,18.8
151.587,99.8
151.6222,124.2
151.6636,101.2
151.6654,141.6
151.6697,150.6
151.6841,227.7
151.7203,91.9
151.7698,689
151.8286,303.6
151.8448,45.2
151.9158,42.2
151.9349,511.3
151.9424,43.8
151.951,966.1
151.9802,440.9
151.9819,332.3
151.9844,54.9
151.9873,125.3
151.9921,19.9
152.022,12474.1
152.0316,3216.8
152.0395,90.6
152.0877,603
152.1182,656.5
152.1952,218.7
152.2353,106
152.2678,317.3
152.2879,515.6
152.4271,96.1
152.5326,439.2
152.5523,16.8
152.5605,281.5
152.6476,472
152.6504,699.4
152.6647,17.8
152.7192,299.3
152.7721,471.5
152.7778,93.6
152.8972,466.8
152.9137,133.9
152.9749,2670.9
153.0329,103.5
153.0835,500.6
153.0998,21.6
153.1247,339.4
153.1484,339.1
153.2012,387.8
153.2618,217.1
153.2678,593.6
153.2769,92.9
153.3553,470.9
153.3593,128.3
153.4497,477.6
153.4806,367.7
153.5073,93.2
153.5398,19.4
153.5596,174.7
153.5761,428.8
153.5828,130.2
153.6517,101.9
153.6668,44.3
153.6943,154.4
153.9258,497.4
153.9376,17.9
153.9735,19.1
154.011,261.9
154.0265,424.4
154.0586,5106.1
154.1069,645.7
154.1245,122.1
154.1364,235
154.1704,18.2
154.2336,508
154.247,487.5
154.2688,773
154.29,18.4
154.4501,345.2
154.4528,215.7
154.4564,668.3
154.462,131.5
154.5314,19.7
154.6054,522
154.6083,113.5
154.7204,576.2
154.7282,182.8
154.8452,141.8
154.8803,499.2
154.9074,29.2
154.9692,1724.7
154.9801,47.5
154.9983,196.2
155.0425,1142.8
155.0539,3665.1
155.0566,118
155.0798,761.9
155.0886,141.6
155.095,315.4
155.116,91.2
155.1517,432
155.2039,113.5
155.227,159.6
155.3261,529.7
155.3399,193.7
155.4312,402.9
155.4333,100.5
155.4912,123.9
155.5195,130
155.5597,95.6
155.5719,117.1
155.594,93.6
155.6624,600.7
155.6715,97
155.8265,125.2
155.8456,155.7
155.8851,245.9
155.9275,589.7
155.932,240.8
155.947,399.5
155.9808,381.2
156.0072,153.7
156.0106,45.5
156.0421,4726.2
156.0572,50
156.0767,68953.4
156.0866,471.6
156.0962,318.4
156.1867,182.3
156.2014,19.9
156.2643,21.4
156.4473,26.9
156.5102,789.3
156.5918,87.2
156.6032,214.3
156.6186,114.4
156.665,154.2
156.6683,178.3
156.916,492.7
156.9796,138.8
157.006,222.6
157.0648,591.9
157.08,1567.1
157.097,124.9
157.1333,155.4
157.1617,222.3
157.219,314.3
157.2238,128.6
157.239,136.2
157.2671,326.5
157.2852,565.6
157.3204,593.9
157.3218,360.6
157.3315,457
157.3803,410.9
157.416,480.4
157.6328,339.8
157.6376,264.3
157.6763,354.9
157.7122,91.1
157.7867,162.7
157.8721,22.9
157.9272,677.6
157.9361,124.7
157.9526,581
158.027,3852.6
158.0738,191
158.0895,195.1
158.0914,110.3
158.1484,131.5
158.1833,148.2
158.2217,654
158.2463,45.6
158.2525,99.5
158.2609,462.1
158.3875,102.3
158.4015,79.4
158.4365,210.3
158.5035,105.2
158.5206,132.2
158.5379,362.5
158.5452,545.4
158.569,509.8
158.6121,284.3
158.6377,109.9
158.6483,446.5
158.6559,703.5
158.6994,477.4
158.8077,439.1
158.8512,266.4
158.8724,141.2
158.922,351.2
158.9277,1071.6
158.964,10537.5
158.9899,90.7
158.9964,3579.1
159.0096,28.7
159.0303,143.4
159.0789,893.5
159.0916,840.6
159.1391,604.5
159.1526,129.5
159.1678,545.4
159.1828,357
159.2309,275.4
159.3175,447.8
159.3548,265.7
159.387,333.7
159.4095,476.8
159.4492,612.7
159.4961,255
159.5078,658.9
159.5119,296.4
159.521,588.4
159.5556,582
159.7025,694.2
159.7382,596.7
159.7388,587.3
159.7399,428.1
159.7464,121.7
159.8474,817.6
159.9081,744.1
159.9983,19.6
160.0229,75
160.0285,127.9
160.0344,13572.1
160.0604,87986.9
160.0935,631.3
160.1584,90.9
160.1696,301.6
160.1808,209.5
160.2844,156.4
160.292,482.1
160.3526,619.9
160.3782,636.8
160.3882,471.1
160.4071,102
160.417,154.8
160.4787,107.5
160.482,346.1
160.5323,17.9
160.5593,133.1
160.6049,123
160.6183,91.5
160.6783,225.1
160.7541,228.7
160.7927,530.7
160.8829,385.6
160.9246,97.8
160.9292,247.6
160.9715,109.9
160.9921,135.7
161.0184,335.5
161.0639,1410
161.0716,52.3
161.133,359.7
161.1442,116.8
161.1991,170.4
161.2598,273.1
161.3148,49.2
161.3877,936.6
161.4082,48.3
161.4185,85.2
161.446,278.2
161.466,668.7
161.5205,363.4
161.5657,291.4
161.5917,142.3
161.5923,171.9
161.604,204.6
161.6329,567.6
161.6453,177.3
161.6907,20.5
161.7101,101.1
161.8029,19.1
161.8121,552
161.9029,164.1
161.9241,94.5
161.9277,181.1
161.9805,684.3
161.9973,21.6
162.0501,13874.5
162.1045,16.1
162.1105,285.7
162.1318,155.5
162.2083,81.9
162.2153,634.1
162.2294,551.3
162.3319,150.9
162.3344,155.6
162.3483,16.8
162.3706,99.8
162.5437,324.3
162.6537,17.7
162.6632,113
162.6949,615.9
162.7305,102.8
162.7901,373.7
162.8154,18.6
162.862,21.7
162.8775,197.2
162.9556,736.5
162.975,507.6
162.9927,28.6
163.0156,993.6
163.018,126
163.0389,21.9
163.0604,47.6
163.0632,296.7
163.0888,250.2
163.091,612.4
163.1154,251
163.1579,291.3
163.1832,17.1
163.2211,144.4
163.2564,130.5
163.2582,135.3
163.3779,658.5
163.4053,523
163.411,109.5
163.4263,445.9
163.5213,151.1
163.5429,406.5
163.6648,139.5
163.6684,365.5
163.6689,350.2
163.6702,347.7
163.6765,637.7
163.6846,701
163.6906,18.8
163.6986,658.4
163.7118,431.4
163.7299,356.4
163.8536,157.6
163.8749,79.9
163.893,552.9
163.9632,304.2
163.9852,78.4
163.9994,27
164.0233,687.1
164.0293,14318.7
164.1336,526.4
164.1352,242.6
164.197,107.2
164.4105,111.4
164.4555,504.5
164.4723,499.3
164.5859,170
164.6566,179.7
164.7018,483
164.7356,103.2
164.8035,131.5
164.8258,384.2
164.9204,4852.4
164.93,19776.5
164.935,3104
164.9378,561
164.9562,168.7
164.97,18.6
164.9786,127.6
164.9843,67.8
164.9925,1008.4
164.9956,20.6
164.9997,527
165.0151,714.5
165.0757,602.3
165.0906,178.9
165.1266,271.7
165.2314,175.5
165.2534,494.8
165.2653,337.7
165.315,147.6
165.3383,293.5
165.3439,541.6
165.3458,20
165.3496,17.2
165.5007,164.8
165.5348,692.1
165.5551,135.8
165.5595,132
165.5838,51.1
165.6876,216.2
165.8116,260.3
165.9495,563.5
165.9577,241.7
165.9667,3502.5
165.9876,5033.4
165.9949,1820.5
166.0202,148.2
166.0531,753.6
166.0627,539.4
166.0857,525.6
166.1484,141.2
166.1665,18.6
166.3032,164.6
166.3543,106.5
166.3709,185.4
166.48,648.1
166.528,112.8
166.6087,83.8
166.6454,221.3
166.7229,388.1
166.7329,582.7
166.7616,358.1
166.8013,462.8
166.8164,443.6
166.8481,545.2
166.9458,22.1
166.9507,25158.7
166.979,102.9
166.9987,80.3
166.9998,93.3
167.0217,4647.7
167.0301,41.8
167.0521,17.7
167.0761,244.7
167.1097,224
167.143,180.8
167.166,373.4
167.23,175.1
167.234,17.3
167.2541,137.6
167.2866,126.4
167.2973,226.2
167.3638,291.3
167.3714,123.7
167.3748,168.9
167.3805,621.3
167.3969,278.3
167.4735,338.7
167.4774,17.2
167.5325,412.8
167.5894,569.6
167.5964,103.6
167.6699,20.6
167.6985,321.1
167.7757,473
167.7791,608.4
167.7909,348.7
167.8865,316.4
167.8963,282.1
167.9728,91.9
167.9943,674.6
168.0057,680.5
168.0266,250.1
168.1001,272
168.148,134.1
168.1534,21
168.1767,497.3
168.2168,379.3
168.2428,298.3
168.2563,17.6
168.3313,110.8
168.3409,289.9
168.4475,117
168.4639,638.6
168.4741,447
168.4845,453.9
168.5517,165.5
168.6048,286.7
168.6104,100.8
168.6302,591.5
168.6929,93
168.8352,386.3
168.8463,277.3
168.9249,25.8
168.9316,135.7
168.9372,71.2
168.9489,3312.4
169.0583,57505.1
169.065,308
169.0758,216.6
169.0948,1027.5
169.1031,282.1
169.1334,422.7
169.1545,19.4
169.205,456.1
169.2162,291.4
169.2758,628.7
169.328,395.1
169.4449,357.5
169.4771,199.9
169.5811,484.8
169.6687,335.6
169.8777,348.8
169.9467,132.1
169.9512,129.9
169.9801,115.9
169.9857,1543.4
170.0271,18
170.0326,9330.3
170.0618,158.3
170.0924,2434.1
170.0997,395.7
170.1187,704
170.1574,493.4
170.203,144.2
170.2383,410.3
170.2545,350.8
170.3863,604.4
170.4682,397.5
170.5315,106.1
170.6289,269.1
170.6302,341.9
170.6597,394.9
170.691,759.6
170.7106,400.5
170.8264,139.1
170.8544,2852.4
170.9147,290.8
170.9602,45.4
170.9895,111.9
171.0166,693.4
171.0279,107
171.1085,555.6
171.1404,18.1
171.1967,237.9
171.3228,215.8
171.3589,174
171.4488,179.3
171.4811,340
171.5014,135.4
171.5106,239
171.5258,330.1
171.5979,437.7
171.5999,309.3
171.6842,18.7
171.7208,187.6
171.7553,94
171.7595,774.3
171.7993,122.7
171.9986,19.6
172.005,45.9
172.028,788.8
172.084,141.1
172.0996,138.7
172.1368,166.3
172.2685,741.1
172.2843,161.4
172.3434,302.2
172.3467,407.7
172.3989,203.4
172.4642,107.9
172.6024,100.8
172.6328,443.7
172.6377,18.5
172.7084,40.5
172.725,148.6
172.77,136
172.8103,574.4
172.8189,617.4
172.8513,2056
172.8991,20.4
172.915,267.9
172.9443,17.4
173.0131,21.1
173.0272,598.7
173.0374,16.5
173.096,231.1
173.1171,368.2
173.1284,457.4
173.1545,115.3
173.1675,113.3
173.1802,175.8
173.1952,526.2
173.2037,133.6
173.2452,93.8
173.2602,369.8
173.2698,39.5
173.3013,591.4
173.3234,175.2
173.3437,18.6
173.3465,89.1
173.3492,96.1
173.4763,84.3
173.481,138.9
173.5445,707.6
173.5645,225
173.5763,224.6
173.5914,19
173.6289,20.7
173.6447,473.6
173.658,137.9
173.7457,225.2
173.8211,174.4
173.8528,89.8
173.8695,64.8
173.926,21.6
173.9289,601
173.9652,87.4
174.0004,66.4
174.134,135.7
174.2136,447.5
174.2372,486.9
174.2762,150.5
174.2913,390.2
174.3114,206.1
174.3499,347.6
174.3807,217.6
174.4137,477.1
174.4949,554.6
174.6022,430.2
174.6118,101.8
174.6361,17.6
174.6649,150.5
174.8843,17.6
174.896,308.1
174.9001,204.6
174.9268,503.7
174.9318,579.7
174.9381,3721.9
174.9686,604.7
175.0058,21.5
175.0155,222.4
175.0341,5082.6
175.0454,3440.6
175.0526,92
175.1056,48.6
175.119,103645.2
175.1501,140.5
175.174,155.9
175.2089,666.1
175.2154,290.8
175.3736,552.9
175.5359,101.4
175.5452,100.3
175.5808,20.1
175.6384,95.8
175.6544,733.5
175.8248,148.9
175.8368,98.6
175.902,486.2
175.9322,180.9
175.9517,557
175.9814,478.9
175.9833,464.3
176.0014,692.3
176.0084,7246.2
176.0163,56.8
176.0223,177.1
176.0342,98.9
176.0554,88.2
176.0658,21098
176.103,1364.2
176.1158,208.6
176.1222,2908.9
176.1465,119.2
176.1523,116.5
176.2728,93.9
176.3277,133.6
176.3496,280.2
176.3817,47
176.3855,157.9
176.4424,82.5
176.4884,624.6
176.5282,418.9
176.6252,454.1
176.664,631.8
176.668,212.5
176.6916,145.8
176.7959,205.5
176.832,113.6
176.86,86.9
176.8787,129.7
176.8934,30.3
176.9332,24.4
176.9925,353.5
177.0246,5474.4
177.0368,507.6
177.0611,6983.2
177.0868,189.4
177.0943,442.5
177.0982,673.5
177.1086,99.3
177.1661,563.9
177.1804,660.8
177.2154,302.1
177.2497,44.8
177.2872,110.3
177.3871,824.3
177.391,279.4
177.4226,142.6
177.5066,193.8
177.5696,201.5
177.6214,199.9
177.6515,388.7
177.6589,112.9
177.6611,188.4
177.7592,554.6
177.7701,21.1
177.8229,303.1
177.9097,142.7
177.9537,98
177.9712,169
177.9795,621.7
177.9949,67.9
178.0087,9224.2
178.0241,7999.7
178.0587,5586.3
178.0643,393.3
178.0966,322.7
178.137,17.7
178.1632,411.9
178.2772,375
178.5004,152.8
178.5137,207.6
178.5467,96.3
178.6175,129.1
178.6636,103.5
178.7269,20.5
178.7931,98.4
178.8502,202
178.8927,56.8
178.9216,53.7
178.9662,106.4
178.9998,47
179.0027,210
179.0255,143.8
179.116,708.6
179.1432,17.4
179.2239,114.2
179.2402,713.4
179.246,223.8
179.3018,173.8
179.3331,281.5
179.3409,168.7
179.3949,177.6
179.4498,88.1
179.4616,87.4
179.5733,97.9
179.6019,928.7
179.6382,392.2
179.6496,151.6
179.7216,337.7
179.8421,220.7
179.8794,652.6
179.9336,163.1
180.0034,10871.9
180.0106,226.6
180.0842,25
180.2202,133.9
180.2458,112.4
180.3112,640
180.3235,85.8
180.3476,119
180.3576,400
180.4512,252.7
180.5961,576.3
180.6023,18
180.6188,19.6
180.6346,571.4
180.7091,303.3
180.7537,176.2
180.7571,501.9
180.763,675.5
180.8152,560.1
180.8509,317.9
180.8881,935.8
180.8945,2349.2
180.904,10825
180.9576,782.3
181.0155,30.7
181.0263,605.1
181.05,18.9
181.0648,4978
181.095,100.8
181.1084,347.7
181.2315,501.7
181.2946,203.1
181.3219,100.4
181.3538,146.5
181.3755,581.4
181.3978,121.6
181.5308,161.5
181.595,44.4
181.7548,155.2
181.7677,161.8
181.7923,366.7
181.8212,98.2
181.889,666.7
181.8966,734.8
181.9511,104.2
181.9615,511.7
181.9638,452.5
182.0424,30010.4
182.0596,93.2
182.0794,294
182.1123,776.5
182.1357,81.4
182.164,146.2
182.2465,91.2
182.3057,16.8
182.3333,454.5
182.3458,491.6
182.3554,135.6
182.5535,314.6
182.5567,618
182.7616,131.6
182.8077,129
182.8135,17.4
182.8844,532
182.887,91.7
182.9025,61.2
182.9156,612.6
183.0059,280.2
183.0198,105.2
183.0439,861.2
183.0462,110.7
183.13,340.1
183.161,81.4
183.2062,706.5
183.2562,668.6
183.2873,82.8
183.3895,19.5
183.4268,717.6
183.4471,98.6
183.456,143.2
183.4668,254.7
183.744,84.3
183.7636,503.2
183.864,854.5
183.8903,216.2
183.9112,108.7
183.9647,634.9
183.9736,252.8
184.0302,16.8
184.0373,219.5
184.0733,3555493.3
184.0816,401.1
184.0948,339.8
184.1098,709.8
184.1113,516.9
184.141,700.5
184.1822,612
184.2136,83.9
184.2474,111.4
184.3314,302.2
184.3857,354.6
184.4358,83.8
184.5952,130.1
184.647,610.3
184.6795,143.6
184.7208,91.7
184.735,95.1
184.7684,344.9
184.7715,106.9
184.787,205.6
184.8048,329.8
184.8156,450.2
184.8388,551.2
184.8765,43.5
184.8929,143
184.903,115.7
184.9296,65
184.9458,639.2
185.0323,71493.9
185.0656,182.9
185.0702,6043.7
185.0767,164116.7
185.0904,343.6
185.1223,20.9
185.1327,109.7
185.1891,181.9
185.2646,478.3
185.2855,115.5
185.3,112.7
185.3698,165.9
185.4214,117.1
185.4229,157
185.4235,158.4
185.4577,595.5
185.5456,628.1
185.571,106.9
185.6234,79
185.6407,231.5
185.6956,680.9
185.7588,378.4
185.7665,160.8
185.8614,18.5
185.9147,270.2
185.9558,693.7
185.9599,2773.3
185.9724,706.3
185.9923,547
186.0333,17.6
186.0358,469.2
186.0775,18354.4
186.1219,93.6
186.2388,183.5
186.3772,300.3
186.5504,635.9
186.5826,698.3
186.5885,286.7
186.6039,127.7
186.6184,261
186.6602,354.2
186.7638,161.2
186.8294,291.4
186.8335,167.3
186.8371,49.7
186.8682,277.8
186.9064,666.3
186.912,3875.4
186.9268,186.7
187.0008,773.1
187.0303,2853.3
187.0577,16039.2
187.0616,581.7
187.0714,469
187.1078,537.9
187.1536,181.9
187.3266,255.2
187.3612,323.3
187.364,167.7
187.3699,21.1
187.5415,299.9
187.6192,693.3
187.7908,95.8
187.8799,189
187.8858,20.1
187.917,44.6
187.9468,522.9
188.0166,303.6
188.021,143.8
188.0299,174.4
188.2731,186.2
188.4537,193.5
188.4581,96
188.4617,134
188.4968,170.1
188.5025,248.9
188.6473,129.9
188.6616,196
188.6928,455
188.7064,662.2
188.7624,24
188.7854,99.3
188.8769,64.1
189.0208,79.4
189.0483,174.2
189.0611,4497
189.0681,21.1
189.0871,7738.7
189.1234,2341.9
189.1616,37.1
189.1672,151.2
189.1749,509.9
189.2425,248.3
189.2543,87.2
189.2771,20.8
189.3028,501.5
189.3834,167.6
189.4285,648.6
189.4426,104.3
189.4822,287.6
189.5866,89.5
189.6238,527.4
189.6277,50.2
189.635,84.3
189.6621,98.4
189.6928,222.8
189.7548,97.5
189.806,44.7
189.8611,388
189.9174,86.1
190.0312,130.4
190.096,728.6
190.1147,99.2
190.1806,109
190.2265,17
190.358,270.8
190.4576,21.2
190.4866,388.5
190.5026,639.2
190.5276,135.3
190.6884,138.2
190.7026,422.4
190.7048,89.6
190.8198,342.7
190.8386,365.4
190.8724,529.7
190.912,1019.4
190.9347,207.8
191.0001,68.9
191.0082,7382.1
191.0242,23
191.0404,116427
191.0671,83
191.0767,20914
191.1402,203.6
191.2405,126
191.3563,99.4
191.4997,82.2
191.6904,577.7
191.7843,533.1
191.8802,26.5
192.0034,452.5
192.0148,401.8
192.033,18
192.0398,10450.5
192.0436,3161.5
192.1288,207.1
192.1639,563.6
192.3739,138.9
192.3916,524.5
192.4183,371.6
192.4922,86.4
192.572,191.4
192.6078,19.4
192.795,104.5
192.8267,406
192.8658,19.2
192.9105,99.8
192.9798,319.9
192.9986,4917.7
193.0159,138.4
193.035,1874.3
193.1608,91.6
193.1643,108.3
193.1715,382.9
193.1753,371.3
193.2371,18.3
193.2542,256.7
193.3515,275.2
193.4731,178.7
193.5456,259.7
193.6468,97
193.8242,331.2
193.9705,222.4
193.9981,2035.5
194.0045,616.5
194.0102,125
194.0175,147.5
194.027,142.2
194.0327,3641.1
194.0371,344.2
194.1539,74.2
194.1562,183.7
194.1633,150.4
194.2283,133.1
194.2695,99.3
194.3493,482.6
194.4086,92.3
194.4699,157.9
194.4908,352
194.5096,48.8
194.6218,441.8
194.7463,84.9
194.762,46.7
194.8108,515.9
194.8256,265
194.8476,175.5
194.8527,442.7
194.9037,233.3
194.9616,704.3
195.0066,125.5
195.0113,28.1
195.1226,270.4
195.154,292.4
195.1839,125.8
195.2354,334
195.2438,283.6
195.3432,342.7
195.4362,20.6
195.4866,309.7
195.5834,49.5
195.7867,533.7
195.8067,44.4
195.8157,130.1
195.8476,650.2
195.9818,30.7
196.0099,149.9
196.0641,109.2
196.0791,371.3
196.1188,496.6
196.1696,384.9
196.2012,471.4
196.2812,325.9
196.3034,415.9
196.3343,426.9
196.3549,86.7
196.371,171
196.4287,157
196.5718,93.8
196.6194,174.6
196.6355,19
196.7178,168.1
196.755,18.7
196.8452,222.7
196.854,137.6
196.8652,5742.2
196.8681,388.7
196.878,3066.8
196.9324,283.4
197.0825,135.7
197.1009,2314.1
197.1799,16.8
197.2241,108.4
197.2271,124.8
197.2301,548.5
197.3093,685.8
197.4583,19.2
197.4783,295.5
197.5223,324.9
197.5532,278.9
197.5745,556.2
197.6593,117.1
197.6845,144.2
197.6919,20.1
197.7047,143.9
197.779,154.6
197.8703,28.7
197.9433,385.2
197.9837,341.7
198.0158,121.9
198.0225,131.1
198.0633,139.1
198.085,9653.7
198.089,720.8
198.1853,6466.5
198.2998,169.5
198.3517,608.2
198.3676,17.3
198.4596,120.1
198.597,144.8
198.6102,46.8
198.6147,352.7
198.6862,238.3
198.8527,558.1
198.8622,4910.5
198.8787,806.8
198.9197,177.5
198.963,16.7
198.9988,99
199.0165,148.8
199.0448,125
199.0691,428.8
199.0753,1303
199.0797,119.4
199.1669,144.3
199.1886,243.6
199.3543,278.5
199.4142,189.6
199.4739,645.9
199.4906,587.3
199.5717,178
199.7018,180.9
199.7418,305.7
199.7561,92.5
199.8335,104.7
199.9099,285.5
199.9907,34232.2
200.0407,18292.1
200.081,24.8
200.0893,96
200.1293,662.9
200.1879,660.2
200.2028,109.7
200.2191,808.8
200.2267,18.4
200.2837,200.9
200.2883,12771.1
200.2962,151.9
200.3487,115.2
200.3789,275.7
200.3925,191
200.4227,596.1
200.4379,466.6
200.4812,42.7
200.5233,89.7
200.5583,86.5
200.6474,650.8
200.7015,528.5
200.8196,103.9
200.8291,355.2
200.838,374.4
200.859,800.7
200.8723,103.2
200.8941,962
200.9181,234.3
200.9358,137.1
200.98,612.4
201.0441,811.8
201.0547,316.2
201.0867,459.1
201.1225,626.1
201.1558,141.2
201.1631,330.3
201.4065,134.5
201.4189,115.8
201.5457,133.3
201.5763,98.2
201.6702,694.7
201.6998,99.3
201.7417,81.2
201.7736,352.6
201.7974,254.4
201.8015,323.1
201.8647,155.4
201.8943,80.4
201.9052,93.1
201.9338,559
201.941,21.2
201.9501,381.8
201.9954,52.3
202.0116,218.5
202.0163,85
202.038,338.3
202.0475,977.7
202.0549,480.2
202.0694,781
202.0911,106.6
202.2232,447.5
202.2557,249.1
202.2812,94.5
202.314,404
202.3204,544.7
202.3685,50.6
202.5405,487
202.6155,763.7
202.6234,13957.4
202.6798,16.7
202.7083,154.5
202.7105,98
202.8075,90.4
202.8177,246.1
202.886,605.1
202.8952,73.5
202.9867,21
203.0078,96.5
203.0318,10046.2
203.0527,1007132.4
203.0768,9657.5
203.1027,1057.8
203.1571,349.2
203.1791,359
203.3178,268.7
203.3402,162.7
203.4558,463.6
203.5742,99.7
203.587,514.1
203.7048,296.8
203.8091,116.7
203.8322,468.5
203.879,341
203.9479,602.5
203.9504,146.1
203.962,641
204.0077,96.6
204.0244,45764.7
204.032,105.4
204.0332,137.3
204.0341,126.9
204.056,51846.1
204.0633,1110.2
204.0865,1694.6
204.1083,830
204.2267,144.6
204.2754,247
204.3501,305.1
204.3831,98.2
204.3944,278.2
204.4101,358.9
204.4613,97.2
204.658,187.7
204.7917,443.1
204.8803,201
204.8843,321.4
204.8885,79.2
204.9764,207.2
205.0157,27.2
205.0279,477.3
205.05,87.2
205.057,5168.9
205.0838,612.5
205.1353,146.3
205.1658,111.5
205.1809,19.1
205.2402,729
205.3399,318.2
205.3763,93
205.5415,369.9
205.7277,258
205.8062,208
205.9294,293.8
205.9958,651.3
206.0476,140.3
206.1034,92.6
206.396,89.6
206.5903,500.7
206.6015,113.1
206.6688,112.7
206.6863,610.3
206.739,527.3
206.7614,134.3
206.8414,50.1
206.8674,21.2
206.8876,147.3
206.894,15746.3
206.9167,277.7
206.9581,127.1
206.982,2436.8
206.9857,95.9
206.9978,179.9
207.0143,78167.2
207.0444,1114.7
207.0507,12251.7
207.1082,323.8
207.1116,343.7
207.1318,367.9
207.3684,307.2
207.463,318
207.495,99.9
207.5261,98.7
207.6766,646.6
207.7305,18.8
207.7491,242.9
207.783,211.9
207.8577,398.5
207.8606,18.6
207.8639,246.3
207.8867,240.9
207.8911,109.4
207.9009,100.4
207.9908,2083.9
207.9977,336.2
208.0139,1748.5
208.0177,2998.3
208.025,340.8
208.0355,803.2
208.043,37
208.0768,444.2
208.2641,289.7
208.302,457.4
208.5051,76.6
208.5151,590.4
208.5298,566.3
208.7273,226.5
208.7929,731.4
208.8716,143.3
208.8831,1850
208.8911,9146.7
208.9052,384.7
208.9085,17.7
208.9118,18.3
208.9192,50.8
208.9284,612.7
208.955,18.7
208.9592,222.5
209.0123,2019.4
209.0739,355.2
209.2012,337.5
209.2268,100.8
209.304,19.6
209.8833,21.8
210.6513,18.6
210.6756,344.8
210.7982,233.4
210.8883,404.1
210.8997,298.4
210.9219,126
210.948,76.7
210.9527,222.2
210.9737,470.6
211.0384,466
211.0568,215.8
211.069,1010.2
211.0823,395.2
211.1129,199.8
211.2064,264.8
211.2301,198.8
211.3008,12047.4
211.3034,10054.5
211.3103,29292.7
211.3141,27617.4
211.319,21331.2
211.3249,4178.8
211.3286,2110.9
211.3366,147.9
211.3709,18.7
211.3915,225.2
211.4354,130.2
211.4551,136.8
211.4692,504.3
211.505,283.7
211.5289,147.3
211.641,703
211.6737,113.5
211.7177,167.4
211.7355,288
211.7382,110.8
211.7689,452.8
211.7977,87.8
211.8536,331.8
211.8754,540.3
211.9357,33.2
211.9433,759.6
211.959,70.2
211.9668,44.8
212.074,128.9
212.0822,319.7
212.1111,670.7
212.2096,424.3
212.2761,142.8
212.2892,645.4
212.2964,711.3
212.43,147.8
212.4428,262.6
212.4549,338.2
212.4852,333.5
212.5401,150.6
212.5737,170.9
212.6098,161.6
212.7442,596.3
212.7963,296.2
212.8391,937.3
212.9487,589.7
212.9621,19.9
212.9652,29.4
213.0552,222.2
213.0749,699.3
213.1331,714.5
213.4001,181.3
213.4091,130.6
213.4165,128.2
213.7021,334.9
213.759,245.7
213.7881,99.7
213.962,2559.3
213.9846,243.2
214.0589,14738.3
214.0899,2444.1
214.1508,46.8
214.2615,98.3
214.2898,45.3
214.2983,441.8
214.3833,422
214.5431,134.2
214.6202,436.3
214.7612,21.9
214.7728,536.3
214.836,1584.4
214.8734,92.7
214.9098,142.4
214.917,163.1
214.9459,17.3
214.9654,46.5
215.0344,89.8
215.0476,172.7
215.062,606.5
215.0931,70.9
215.1344,18
215.1983,137.4
215.2103,678.9
215.2151,942.3
215.2342,605.4
215.3376,261.2
215.559,228
215.5736,283.7
215.6002,101.5
215.6867,111.8
215.7269,228.6
215.8375,197.7
215.8481,559.1
215.9023,98.7
215.9299,187.4
215.9581,45.5
215.965,297.7
215.9748,641.1
216.0147,12571.9
216.1269,19.6
216.1888,103.2
216.1925,469.3
216.1962,506.5
216.2322,514.4
216.2598,150.1
216.3636,345
216.3908,222.7
216.5746,254.1
216.5859,522.3
216.5923,274.1
216.6592,302.3
216.685,115
216.7284,131.8
216.8334,514
216.9228,40053.4
216.9426,415.3
216.9972,533.7
217.0179,465.9
217.027,191.2
217.0687,453.9
217.0822,1054.1
217.0915,128.6
217.158,543.7
217.1955,670.5
217.3036,117.3
217.3283,347.7
217.3564,144.2
217.4236,100.3
217.4857,18.4
217.5341,130.8
217.6244,244.9
217.6936,116.3
217.7753,84
217.8326,649.7
217.8752,391.5
217.9176,218.9
218.0291,104.4
218.0723,180.6
218.0762,43.7
218.0986,173
218.1388,19.6
218.1518,46.1
218.2369,141.6
218.3034,19
218.4337,370.2
218.5076,196.2
218.5122,501.9
218.5673,48.8
218.5772,108.2
218.5841,639.8
218.6034,667.4
218.8679,262.6
218.8715,643.2
218.9042,271.9
218.9199,12903.1
218.9399,85.3
218.9789,304.7
219.0266,1171549.1
219.0484,92.1
219.0615,448.4
219.0828,7720
219.0995,433.4
219.1184,314.2
219.2166,170.4
219.245,100.8
219.2691,292.3
219.3237,612
219.4306,513.8
219.4976,258.8
219.6005,152.5
219.6315,661.6
219.6898,108.3
219.7711,146
219.8095,1005.7
219.8146,569.3
219.8505,306.9
220.0141,21.7
220.03,62187.1
220.037,1329
220.0427,20.4
220.0669,9909.3
220.0768,19.7
220.1672,478.8
220.3066,483.5
220.3314,112.8
220.3442,236.8
220.4534,20
220.6172,735
220.6725,468.4
220.753,323.5
220.9034,29
220.9061,19.9
220.9328,22.9
220.9664,90.3
220.9788,243.3
220.9879,217
221.0247,69739.8
221.0309,7081.8
221.0507,1182.2
221.0714,19
221.0846,782.1
221.1349,120.1
221.2617,637.7
221.4352,585.6
221.4648,98.6
221.4789,101.5
221.5513,598.6
221.692,52.8
221.695,117.4
221.7431,698.3
221.7557,322.9
221.9254,559
221.9327,122.5
221.9566,53
221.9684,111.5
221.9836,1686.1
222.0282,450
222.2539,147.3
222.26,555.8
222.3418,320
222.4768,332.9
222.482,189
222.6925,138.1
222.8344,380.3
222.8679,13539.3
222.8765,121.2
222.8791,499.4
222.8882,415.2
222.8987,656.6
222.911,452.8
222.954,1850.8
222.9683,121.9
222.9882,8994.2
223.0249,360.2
223.037,234.3
223.0564,175.6
223.0635,29.4
223.1077,556.9
223.3019,208.9
223.3806,523.7
223.4957,385.8
223.6443,19.6
223.6715,683.8
223.6929,358.5
223.7376,505.2
223.754,136.3
223.953,34
224.0295,8907.1
224.2205,21.8
224.3526,397.8
224.3736,86
224.448,185.6
224.5324,578.8
224.6048,474
224.6307,195.9
224.6529,98.1
224.7114,835
224.7844,725.2
224.8648,7252.4
224.8945,520.4
224.8987,303.8
224.9272,131.4
224.9467,177.9
224.9789,139.2
225.0236,61.2
225.0547,23013.9
225.0754,618.5
225.0848,1145.1
225.2634,557.2
225.4659,373.7
225.4816,128.1
225.608,608.1
225.7087,106.4
225.7763,563.3
225.9409,21.2
225.9623,97.7
225.9911,630.1
225.9968,216.2
226.002,53.9
226.0063,2720.3
226.0242,7839.7
226.0451,9862.8
226.0546,139.5
226.0901,243.9
226.1312,305.7
226.1392,109.7
226.3915,651.8
226.4118,355.2
226.5039,397.2
226.587,151.6
226.615,141
226.6652,765.2
226.7557,368.6
226.8001,302.5
226.8201,97.1
226.8314,111.5
226.857,539.8
226.8622,395.8
226.8852,135.3
226.9515,31779.8
227.0212,243.6
227.0341,365.2
227.0448,46.9
227.0512,345.4
227.0792,1910.6
227.087,774.8
227.1593,99.6
227.2052,101.8
227.2547,435.3
227.2735,290.1
227.3228,109.6
227.3733,18
227.4001,150.9
227.4389,649.3
227.6688,169.7
227.6751,621.1
227.7128,20.1
227.7214,96.1
227.9348,114.2
227.9549,743.1
227.9616,311.1
227.9845,200
228.0002,137.7
228.0561,1239.5
228.1339,585
228.2126,921
228.2317,130.4
228.3181,490.6
228.6514,280
228.6525,285
228.6544,101.1
228.7075,548.2
228.714,206.1
228.7605,161.7
228.8894,47.3
228.96,149.9
228.9819,159.1
229.0032,116.9
229.042,891
229.1297,101.1
229.2761,299.7
229.2932,124.1
229.3751,413.6
229.4061,495.6
229.454,226.7
229.4698,131.2
229.5367,624.6
229.5615,105.2
229.5756,216.2
229.5765,232.1
229.5781,92.7
229.6929,123.4
229.8022,569.9
229.9569,8590
229.9875,332.6
230.0333,126.9
230.0428,144.6
230.0789,781.3
230.0934,274
230.1006,201.1
230.1138,453.5
230.1345,125.1
230.1578,108.1
230.2051,615.4
230.284,344
230.4245,592.8
230.5732,210.6
230.63,21.9
230.6836,281.5
230.7682,47.7
230.829,392.3
230.8324,211.9
230.89,556.2
230.9383,679.3
230.9603,400.3
231.0842,718.5
231.1067,158.6
231.1205,21
231.1247,177.8
231.4182,351.7
231.4947,112
231.6738,463.8
231.7802,123.8
231.9387,307.2
231.9528,150.6
231.9572,319
231.9617,20.5
231.9727,159.1
231.9954,93.8
232.0624,550.7
232.08,297.8
232.0838,284.9
232.1325,361.5
232.1499,297.2
232.1926,394.1
232.2086,164.7
232.2548,137.9
232.3316,17.9
232.483,86.8
232.8836,22.7
232.8967,36431
232.9393,686.2
232.9627,230.1
233.0509,10656.7
233.1106,332.7
233.1195,484.4
233.125,327.4
233.1434,174.2
233.1631,578.6
233.2098,184.6
233.2458,96.5
233.4033,183.9
233.4363,149.6
233.5212,370.9
233.5531,167.9
233.6216,140.9
233.7486,173.7
233.7838,694.9
233.9528,64.7
233.9637,513.2
234.0178,220.1
234.0569,543.7
234.0942,135.1
234.144,18.3
234.1464,19.5
234.2864,281.7
234.337,275.2
234.4311,789.9
234.5074,155.9
234.5135,277.4
234.5696,222.2
234.6171,45.6
234.6478,236
234.6539,452.5
234.6748,523.6
234.6902,642.7
234.819,396.9
234.8829,40.2
234.8936,10507
234.8997,23.5
234.967,161.6
234.9816,3828.7
235.004,559.4
235.0457,162.5
235.0569,4453.4
235.0667,2387
235.0925,6727.1
235.2085,286.1
235.2143,166.4
235.2618,526.2
235.4114,189.1
235.5004,22.8
235.5954,105.4
235.6379,530.4
235.67,24.7
235.7233,153.2
235.9446,569.7
235.9603,353.1
236.0089,433.8
236.0147,105.3
236.0219,120.6
236.0408,7059.7
236.0671,34
236.0717,56816.4
236.1229,20.6
236.137,715.5
236.3193,130
236.4319,269.7
236.4768,223.8
236.4948,187.1
236.5595,140.2
236.6363,42.6
236.6383,43.4
236.6463,611.5
236.7026,376
236.878,371
236.8919,764.1
236.907,56.2
236.9142,24.1
236.9796,292
237.0298,226.4
237.0523,110.2
237.0711,52.8
237.0751,2085.5
237.0962,535.8
237.1345,44.6
237.1537,216.7
237.2653,436
237.367,21.6
237.387,108.6
237.3961,220.9
237.5273,162.6
237.5354,141.2
237.6275,278.2
237.7942,514.8
238.0388,385.2
238.0457,20.3
238.0674,718.9
238.0782,28
238.1055,89.2
238.1522,217
238.2654,169.8
238.2826,121.3
238.2908,94
238.3026,132.2
238.4232,465.9
238.4766,200.9
238.5772,179.1
238.5785,178.2
238.5802,138.1
238.7143,187.8
238.7917,110.8
238.8085,236.5
238.842,3044.6
238.9288,169.5
238.9431,93.4
238.9521,225.5
238.9709,149.7
239.0091,5254.4
239.0491,555.3
239.0561,113.6
239.068,1446.9
239.1515,278.4
239.1786,51.2
239.3064,145
239.3334,112.5
239.4096,21.4
239.4636,189.6
239.5692,147.9
239.728,94
239.7538,138
239.7673,87.6
239.778,151.8
239.7979,145
239.8032,317.6
239.826,146.4
239.8325,188.5
239.9862,19
240.0035,5385.6
240.0571,96.8
240.0923,538.5
240.0998,1835.9
240.1101,79.1
240.2138,727.8
240.3347,488.8
240.4289,776.4
240.4732,83.5
240.4835,175.9
240.5953,723.1
240.6545,667.2
240.7706,83.8
240.8387,2386.1
240.8986,102
240.9545,1523.8
240.9587,97.9
240.9671,798.6
241.025,123.5
241.0315,891.2
241.332,327.5
241.3508,88.6
241.3556,504.6
241.5201,130.5
241.5671,473.8
241.5841,153.5
241.7177,592.1
241.7965,88
241.8142,444.3
241.909,386.8
241.9773,154
241.9981,1993.6
242.0151,25.2
242.019,5814.8
242.0418,297.5
242.0545,459
242.1077,282.4
242.1123,285.8
242.1859,286.8
242.1972,156.6
242.3363,99.7
242.4674,766.4
242.6183,371.6
242.6218,385.7
242.7626,227
242.7969,375.2
242.8297,615.5
242.8449,92.1
242.8628,19.9
242.9085,20.9
242.9255,14884.1
243.0062,422.7
243.0336,106.1
243.0531,11324.4
243.0653,7014.2
243.1246,118.4
243.2105,183.4
243.3038,490
243.4519,84.8
243.4922,396
243.5372,90.7
243.6016,580.1
243.6487,363.6
243.6743,102.2
243.7496,191.5
243.7822,97.7
243.8639,159.4
243.9727,3509.7
244.0059,189.3
244.0125,190.2
244.2578,119.1
244.2619,692.2
244.3139,665
244.3511,318.7
244.4197,166.2
244.4386,615.3
244.5132,630.2
244.5373,141.7
244.5514,166.3
244.5628,538.3
244.6408,96.8
244.6802,18.1
244.7665,550.3
244.8708,8204.7
244.9271,299.5
244.9759,195.7
245.0146,202.3
245.0918,277.5
245.2571,91.6
245.5017,494.9
245.5156,466.8
245.6369,150.3
245.7235,123.1
245.9682,76.5
245.9733,142.1
245.9883,67.9
246.0013,125.8
246.0436,43.5
246.0473,136.4
246.1039,394.6
246.1109,553.7
246.2055,557.1
246.312,156.4
246.3686,156
246.4159,211.5
246.4413,479.9
246.6496,101.4
246.657,315.4
246.7117,211
246.8072,27.1
246.8106,90.3
246.8419,204.1
246.8624,511.3
246.8679,2562.3
246.9517,3026.7
247.0371,179.2
247.0619,404.1
247.0666,1442
247.0851,93.5
247.0927,4621.2
247.2279,214.1
247.2392,18.4
247.2748,159.2
247.475,218.8
247.7141,704.8
247.8264,727
247.8596,554.3
247.8647,140.9
247.923,19.4
247.9611,628.4
247.9675,740.3
247.9833,852.4
248.1242,31016.5
248.3317,239
248.3659,282.6
248.411,563.1
248.4287,556
248.5624,19.6
248.6114,278.8
248.6979,45.1
248.8304,275.2
248.8708,8082.8
248.9009,116.6
248.9484,143.9
248.9701,22.2
248.9915,253.5
249.0159,805.8
249.0612,18831.8
249.0859,178.8
249.1238,120.6
249.5178,464
249.7089,603.9
249.8344,289.8
249.8394,620.6
249.889,430.2
250.0382,1545.5
250.0646,476
250.1349,173.4
250.2313,19
250.3009,297.1
250.4118,806.9
250.5252,176.6
250.6409,360.4
250.8026,123.6
250.8677,1936.4
250.8896,90.5
250.8937,247.1
250.9204,3168.6
250.9745,541.6
251.0211,22.1
251.0345,239.1
251.1383,662.3
251.1506,148.8
251.1772,232.6
251.3463,18.1
251.3675,248.6
251.5376,19
251.5888,19.6
251.6737,703.7
251.7148,158.5
251.7361,104.7
251.8113,21.3
251.8739,88.2
251.9806,579.6
252.0368,94.3
252.0456,105726.8
252.1669,108.5
252.2023,137.9
252.308,21
252.341,145.6
252.3508,51
252.3785,300.4
252.3858,332.5
252.4222,625.3
252.4948,184.4
252.5132,20.3
252.5587,579.8
252.618,565.8
252.6441,671.3
252.6636,973.8
252.6814,115.4
252.8051,254.6
252.8088,492
252.9175,982
252.923,162.2
252.932,439.5
252.9515,21.1
252.9671,129.3
253.0047,526.2
253.025,289.8
253.0489,3672.8
253.0813,612.6
253.1054,511
253.658,164.5
253.7617,289.7
253.7706,18
253.802,94.1
253.8739,22.6
253.9222,585.2
253.9676,118.3
254.019,94.7
254.0354,941
254.0433,2824.6
254.1751,731.6
254.267,317
254.3153,300.4
254.4844,116.5
254.5024,661.2
254.5114,86.1
254.5487,387.6
254.5978,19.6
254.6239,551.6
254.6954,149.2
254.7147,119.1
254.816,573.5
254.8237,6942.7
254.8903,342.6
254.8988,484.2
254.9244,171.1
254.986,112.9
255.0251,290.4
255.0329,27921.9
255.0404,306.7
255.0461,243.9
255.0702,271.3
255.1069,248
255.2283,659.2
255.2683,117.5
255.3093,318.2
255.5246,178.6
255.5928,281
255.6665,120.5
255.7133,365.9
255.7356,731.7
255.8277,22
255.8701,153
255.8715,220.2
255.8732,185.8
255.9321,22.4
255.978,1123.7
255.9828,1110
256.0031,802.7
256.0254,85.9
256.0439,150
256.0583,67.1
256.0698,336.4
256.0997,794.4
256.1051,96.3
256.1304,279.5
256.1732,17.3
256.2419,384.6
256.3019,398.5
256.3607,437.3
256.3788,106
256.4936,261.1
256.509,161.5
256.8136,696.1
256.8209,10925
256.8387,593.8
256.9803,24.9
257.0221,167.2
257.0485,8256.7
257.0652,757
257.0745,49204.2
257.1527,614.9
257.3432,20.6
257.3928,168.5
257.4041,140.9
257.6137,591.5
257.7014,111.2
257.7883,159.2
257.7998,552.5
257.8498,560.1
257.9019,19.2
257.9454,726.6
257.9519,270.8
257.9884,114.2
258.0299,820.3
258.0713,115.6
258.0776,1275.7
258.1103,21624.5
258.3019,556.4
258.3458,105.4
258.4605,19.4
258.5784,546.6
258.8179,2823.3
258.8896,19.7
258.8995,3015.6
258.9279,20.5
259.0382,133.7
259.1272,108.2
259.4453,549
259.4888,20
259.5513,629.6
259.6357,175.6
259.709,371.3
259.893,145.6
259.9287,501.4
259.965,738.5
260.0598,164.5
260.0907,300.9
260.206,23.3
260.2399,543.4
260.3621,574.1
260.4103,153.9
260.4431,174
260.624,120.9
260.64,84.3
260.8138,214.3
260.8447,3794.9
260.8878,368
260.9048,512.5
260.9341,134.3
260.9491,7233.8
261.0226,526
261.0312,628.6
261.0403,207.9
261.0454,248.2
261.1087,533.8
261.2997,132.7
261.4378,281.1
261.4699,95.7
261.4803,119.1
261.5463,571.2
261.5671,386.8
261.6657,316.4
261.7359,108.5
261.8417,257.8
261.9834,286.7
262.0814,1044.3
262.4413,643.2
262.4766,23.3
262.7348,569.1
262.7868,105
262.8799,365.7
262.9165,596.8
262.9237,220.3
262.946,1986.1
263.0132,766.1
263.0652,137.8
263.0849,1134
263.0908,318.3
263.1393,151.8
263.1461,89.6
263.1697,894.5
263.2699,460.6
263.3837,174.8
263.3899,546.8
263.552,287.7
263.5821,158
263.6071,19.3
263.8011,556.4
263.8327,161.7
263.8473,490.5
263.8933,149.4
263.9079,578.8
264.2122,103.4
264.2209,97.5
264.2492,641
264.4323,353.7
264.4503,689.9
264.4642,192.3
264.5085,216.5
264.6053,86.8
264.8332,153.9
264.8446,1469.2
264.8526,4764.1
264.873,135.7
264.9337,985.8
264.954,376.7
264.9884,13299.7
265.0161,27
265.0352,12270.4
265.0409,297
265.0472,2568.4
265.0533,17.9
265.1005,136.6
265.2086,87.8
265.2137,390.4
265.2454,600.7
265.2505,353.5
265.7408,863.3
265.8086,164.6
265.9574,172.5
265.9782,389.8
265.9932,88.1
266.0642,124.1
266.1164,101.4
266.1544,23.7
266.2618,499
266.3715,141.7
266.3839,725.6
266.4559,697.6
266.4717,540.3
266.5757,20
266.5888,96.8
266.6924,383.5
266.7703,376.6
266.8229,142.4
266.8498,4455.6
266.8943,2531.1
266.9324,368.6
266.9589,74.6
266.9907,409.4
267.0764,137.5
267.2175,94.1
267.2284,786.9
267.5692,288
267.6283,641.4
267.6802,87.9
267.8347,202.5
267.8809,291.1
267.9142,708.8
267.9736,69
267.9935,1544.5
268.0093,115.3
268.0293,847.4
268.2778,153.6
268.4355,709.9
268.4547,362.7
268.4578,396.1
268.494,544.6
268.6643,101.7
268.6918,100.1
268.7061,565.7
268.8643,718.7
268.8911,581
268.9128,410.2
268.9863,133.8
268.9975,33.7
269.0279,455
269.0347,137.8
269.0486,41417.1
269.076,622.3
269.2163,568.9
269.3305,569.7
269.3461,586.4
269.4519,606.5
269.4738,21.6
269.5569,18.3
269.5992,161.5
269.6605,545.9
269.7073,239.8
269.7406,348.7
269.7887,149.4
269.8252,92
269.8981,18.5
269.923,90.4
269.9525,25.7
269.9575,105.3
269.9893,295.7
269.9938,2062.7
270.0095,119.9
270.0247,18845.6
270.0473,20198.5
270.0519,868.7
270.0603,209.2
270.0916,325.3
270.1449,2365.7
270.2556,107.8
270.287,93.3
270.3596,19.3
270.3676,539.6
270.6373,292
270.736,141.4
270.7872,851.6
270.7978,4253.6
270.8619,214.6
270.8952,414.4
270.9337,572.7
270.9599,30.2
270.9778,17276.4
270.9925,20.3
271.028,2166.5
271.0503,766.2
271.0903,1764.7
271.2512,595.2
271.3051,398.8
271.6033,84.3
271.6083,596.2
271.6964,114.7
271.7183,20.5
271.7439,127.2
271.7612,680.1
271.8216,652.9
271.8955,396.3
271.9312,118.5
271.9514,569.1
271.9671,107.6
272.0205,586.8
272.0428,29.3
272.0612,97.4
272.0802,144.7
272.3944,16.6
272.4453,620.2
272.4591,315.3
272.5234,52.3
272.5918,150.2
272.6682,227.4
272.6766,18.6
272.7259,137.1
272.7949,4276.5
272.8157,647.9
272.8492,133.3
272.8962,529.4
273.0183,293.4
273.0486,1891
273.0785,708.5
273.195,85.1
273.2656,304.8
273.3542,340.9
273.3914,491.6
273.506,46.6
273.5692,315.7
273.6664,379.5
273.9188,51.4
273.9573,381.4
273.9625,14596.7
274.069,65.7
274.0924,3633.2
274.1423,351.7
274.1555,142.7
274.161,526.2
274.3466,600.5
274.3718,315.1
274.4297,373.6
274.5335,149.1
274.585,420.3
274.7066,181
274.7919,2515.6
274.8024,20.9
274.8472,168.3
274.8815,703.6
274.9822,51.5
275.0969,221.9
275.122,142.7
275.1812,340.3
275.1977,329.8
275.2098,101.8
275.2235,138.7
275.3357,113.3
275.3635,18.7
275.4387,170.9
275.5262,368.1
275.5703,475.6
275.8731,51.6
275.9389,514
275.9467,48.4
275.9873,603
276.0033,112.4
276.0843,46.2
276.1141,389
276.1205,126.8
276.3089,192.6
276.4536,43.7
276.4909,229.4
276.7334,231
276.7646,336.5
276.8073,108.9
276.8661,320.3
276.8855,218.5
276.9047,23.5
276.9101,53.5
276.923,8714.7
276.9665,44.1
277.0284,157.3
277.2076,222.2
277.2218,492.4
277.2581,286.7
277.5164,19.4
277.9365,380.3
277.9997,20.8
278.0032,741.6
278.0189,331.2
278.0454,541.1
278.0643,351.7
278.1262,199.6
278.1375,180.2
278.1989,22.4
278.2269,588.2
278.4529,599.5
278.463,229.9
278.5385,19.1
278.5819,518.4
278.5998,267.6
278.6443,303.6
278.7066,389.4
278.8887,55.2
278.9115,657
278.9202,1108.1
278.9869,2636.9
279.0042,1924.5
279.0566,37319.6
279.0894,20.6
279.2747,144.3
279.3049,19.7
279.7175,144.4
279.7472,153.7
279.7554,475.3
279.8937,835.4
279.9016,178.7
279.9101,104.2
279.9353,707
279.9964,137.6
280.012,921.2
280.0465,115
280.0602,445
280.0735,100.1
280.0805,90.3
280.0924,475.9
280.2389,228.3
280.3173,99.5
280.3363,95.9
280.3761,628.5
280.3958,604
280.4331,175.1
280.4863,400.8
280.5025,750.9
280.7123,194.6
280.7545,549.2
280.7896,20.3
280.8054,99.9
280.8145,294.3
280.8267,2773.4
280.8737,162.4
280.9199,114.7
280.9501,778.9
280.9623,1564.8
280.9828,99.9
281.0089,1882.9
281.0317,312.2
281.0514,507.3
281.0577,169
281.173,683.2
281.3697,139.6
281.3834,19.2
281.4001,189.9
281.4113,198.5
281.5076,273.4
281.5287,93.8
281.8564,184.6
281.9336,382.4
282.0149,63.9
282.0646,317.3
282.1375,31
282.1949,67.2
282.2093,117
282.2442,294.2
282.2779,111.9
282.3252,172.8
282.3698,17.6
282.4292,167.2
282.4835,19.3
282.5143,599.9
282.6525,246.1
282.8238,2458.3
282.868,1061.2
282.9801,93.4
283.0159,572.3
283.0281,1397
283.1563,528.6
283.2492,215.2
283.2637,24.7
283.2743,343.9
283.3383,360.9
283.345,409.4
283.5508,152
283.5913,148.8
283.5931,167.7
283.5945,128.6
283.625,348.4
283.7619,20.9
283.8768,103.1
283.9301,120.6
283.9884,86.8
284.0041,50
284.0243,191.9
284.063,103.3
284.1235,535.8
284.552,662
284.6141,85.6
284.6839,17.3
284.7908,280.1
284.8469,142.4
284.9322,17
284.9525,477.4
284.9862,137.5
284.9953,140.4
285.0227,211.4
285.0435,556.2
285.2313,99.6
285.4365,20.2
285.502,527.1
285.6205,104.7
285.7548,816.7
285.7866,19.5
285.8428,231.3
285.9395,22
286.0039,40.2
286.0197,4441.2
286.0451,108.7
286.052,334.7
286.0965,30.4
286.2198,155
286.2295,18.4
286.2806,208.8
286.3043,142.8
286.3085,144.3
286.4427,715.6
286.559,722.9
286.5647,698.1
286.5961,341.1
286.6019,113.6
286.627,18.6
286.7193,21.1
286.7723,512.3
286.9519,6245.9
286.9992,18.9
287.0017,18.1
287.0229,428
287.0494,202.4
287.0553,29699.4
287.1184,749.9
287.1525,167.2
287.2853,416.7
287.2986,662.6
287.316,98.5
287.3405,109.2
287.5723,837.3
287.6001,136.7
287.9484,98.6
288.0155,109.7
288.0198,223.1
288.0352,183.3
288.0584,332.4
288.084,80.9
288.1557,19008.8
288.1996,211.8
288.2321,218.4
288.3469,244.7
288.3594,50.4
288.4541,183.7
288.5052,24.4
288.5673,93.3
288.5728,499.9
288.7688,1666.2
288.7995,24.8
288.8671,136.6
288.8755,264.9
288.8778,335.5
288.8805,280
288.8888,1538.5
288.8934,2436.1
288.9031,5499.5
288.9118,6944.8
288.9198,10009.5
288.9267,14028.3
288.9341,16423.2
288.9472,15249.8
288.9517,17660.6
288.9569,22173.5
288.9663,21652.5
288.9766,16615.4
288.9805,19244.5
288.9849,16555
288.9891,12817.9
288.9937,9618.3
289.0004,4871.7
289.0067,2092.8
289.0165,650.7
289.0887,98.2
289.1591,756.7
289.2865,575.3
289.3498,48.2
289.3894,22.8
289.4118,582.2
289.5484,111.3
289.6267,108.6
289.8019,181.8
289.8225,476.8
289.8811,216.9
289.9365,1730.5
290.15,424.7
290.1641,138.8
290.2046,18.9
290.3188,829.2
290.3432,239.9
290.3527,447.2
290.383,21.5
290.5957,115.9
290.706,287.6
290.7489,469.1
290.7663,988
290.8341,22.5
290.8818,21.1
290.8979,524.3
290.9195,390.6
290.9272,476.8
290.947,384.2
291.0264,1796
291.0581,40.9
291.0992,540.4
291.1222,394
291.2127,18.5
291.2748,18.2
291.2935,581
291.3443,116.5
291.8444,440.7
291.9078,112.7
291.9747,228.6
291.9828,513.6
292.0795,34.8
292.1023,606.1
292.2122,381.9
292.2943,116.7
292.3666,21.9
292.4604,177.4
292.6266,148.3
292.7519,21
292.7626,491.3
292.8974,1244.7
292.9062,134.8
292.9788,457.3
293.0723,2867.8
293.0981,676543.2
293.1426,406.4
293.1795,874.5
293.1879,293.5
293.3436,682.2
293.3538,600.3
293.3882,19
293.4389,169.4
293.5461,105
293.5639,678.7
293.6577,22.7
293.7427,225.6
293.7942,731
293.8438,464.4
293.8778,107.3
293.9326,106.7
293.938,640.7
293.9543,463.3
293.9638,161
293.9734,91
294.0879,350.5
294.0956,996.2
294.1015,59957.8
294.1659,141.4
294.2202,262.8
294.2401,19.5
294.4174,249.2
294.4247,652.9
294.442,290.4
294.4915,752
294.6298,21.1
294.6476,587.1
294.682,189.7
294.8287,43.9
294.8501,388.9
294.9169,90.6
294.9542,336.3
294.9905,216
294.9968,614.9
295.0306,1374.6
295.1021,3318.2
295.1947,8695.4
295.3339,358.2
295.6211,455.8
295.642,108.7
295.6481,285.9
295.742,494.6
295.8037,189.8
295.8959,164.8
295.92,110.1
296.0745,588.6
296.1041,648.9
296.1649,144.5
296.1977,741.7
296.2844,353.3
296.3524,547.8
296.6546,196.3
296.8574,30
296.9231,503.7
296.9362,386.9
296.9875,58
297.0129,19.6
297.1073,67.7
297.1916,105.7
297.2094,369.3
297.6926,587.5
297.7486,235.5
297.8516,679.8
298.0133,157.4
298.0256,810.6
298.0423,15330.7
298.1108,51.7
298.2694,412.3
298.4142,322.7
298.5178,121.3
298.6289,649.6
298.6967,121.8
298.8178,466.7
298.8435,576.4
299.0226,1151.5
299.0388,60.4
299.0456,395.2
299.0615,94.9
299.1395,2111.4
299.3121,680.2
299.317,479.9
299.5981,360.9
299.6335,224.6
299.7513,305.3
300.0045,1440.3
300.0353,1328.4
300.0752,410.9
300.1583,394.6
300.1788,117.6
300.1966,42.5
300.2205,601.7
300.223,602.8
300.4208,405.1
300.4306,137.1
300.6833,266.3
300.7023,19.7
300.7959,522.6
300.8902,112.5
300.9003,168.2
301.0115,61.3
301.0163,16.8
301.0386,24326.5
301.0865,331.9
301.1008,678.9
301.1413,247.4
301.1879,330.4
301.2825,155.2
301.3122,817.1
301.4649,140.5
301.6474,358
301.703,574.1
301.757,162.3
301.8901,161.6
301.897,19.7
301.9073,183.5
301.9609,539.8
301.9797,144
301.9939,7102.2
302.0149,97.6
302.0199,440.7
302.0352,50.8
302.051,296.7
302.0639,2788.4
302.1119,331.9
302.1579,316.5
302.2034,515.9
302.2718,171.9
302.3062,112.3
302.4667,157.1
302.6652,313.5
302.7347,1677.6
302.7506,385.1
302.8293,3948.3
302.9258,850.4
303.0115,18.1
303.027,544.2
303.0673,218.6
303.2172,883.7
303.271,98.7
303.451,389.6
303.5408,20.3
303.6262,55.1
303.6927,127
303.7276,18.4
303.7469,542.3
303.8535,48.1
303.8768,765.6
303.9125,18.8
303.9857,335.2
303.9998,92.4
304.0595,91.5
304.1237,558
304.1896,579.9
304.2867,571.9
304.3394,93.5
304.4888,465.6
304.5684,254.7
304.7434,744.8
304.7562,119.9
304.8159,358
304.8265,3671.9
304.8319,289.7
304.8494,271.4
304.895,47.9
304.9212,121.1
305.0111,128.7
305.0281,130
305.0324,197.7
305.2519,392.8
305.2656,117.2
305.4784,19.5
305.5312,946.8
305.78,234.4
305.8195,147.3
305.8438,137.7
305.9093,188.9
305.9298,356.1
305.9826,91.6
306.0368,417
306.0953,62.1
306.2114,524.2
306.2431,104.3
306.2906,42.3
306.4212,20.8
306.5111,18.4
306.5155,114.3
306.5777,20.8
306.6096,241.2
306.7633,643
306.813,25.2
306.842,104.1
306.8648,19
306.892,190.4
306.9154,247
306.9564,367.8
306.9771,3679.2
307.0972,23.3
307.1351,21.7
307.1449,160.7
307.1811,92.7
307.3063,532.5
307.3306,767.1
307.3776,141.4
307.3997,235
307.4721,99.5
307.6262,351.3
307.7389,99.8
307.7775,308.9
307.939,99.5
308.0509,154.9
308.1288,135.7
308.1584,232.1
308.4734,294.4
308.5297,524.4
308.6647,19.5
308.8081,231.8
308.8254,93.7
308.8317,520.4
308.8791,2847.5
308.9855,180.7
309.0049,426.6
309.0264,513.6
309.0375,2798.3
309.066,317.1
309.1321,21.5
309.1509,59.5
309.2246,45.9
309.5141,619.5
309.6635,285
309.9263,295
309.9671,17.5
309.9878,267.9
310.02,20.5
310.0287,20
310.0611,19.2
310.0734,170
310.2273,167.5
310.2662,18.9
310.3551,337.5
310.4653,18.1
310.5553,333.8
310.5683,419.3
310.6584,100.6
310.7015,672.3
310.8758,3146.5
310.9554,22.4
311.0026,23.9
311.0927,146.4
311.1061,198.8
311.167,413.3
311.4678,189.4
311.5357,727.7
311.7171,405
311.7536,314.3
311.8948,200.5
311.9177,361.2
311.9747,782.7
311.9866,20.4
311.9988,185.2
312.0193,240.4
312.1459,128.3
312.2905,97.9
312.2979,145.7
312.3707,98.7
312.3933,106.3
312.5599,111.5
312.858,809
312.8728,681.8
312.8832,295.5
312.8927,110.7
313.0178,213.6
313.1767,360.8
313.2137,590.8
313.2305,594.8
313.24,282.3
313.274,31137.9
313.5405,306.2
313.5582,501.7
313.6508,465.6
313.8051,17.5
313.8899,280
313.9572,729.1
313.9875,163.4
314.0146,5627.7
314.0908,45.2
314.184,229.4
314.2262,447.9
314.2771,2644.8
314.2884,18.7
314.405,230.2
314.4645,571
314.6753,293
314.7395,365.8
314.8371,4468.7
314.8731,546.5
314.8984,176.4
314.9207,59.1
314.9399,581.7
314.9991,3981
315.0045,810.8
315.0179,464.3
315.0428,342.6
315.0551,7399.4
315.0618,4705.1
315.066,14284.8
315.07,17031.2
315.0801,8035627.5
315.0896,13596.1
315.0918,8784
315.0943,5659.7
315.0962,6630.8
315.1045,2973.1
315.1219,135.2
315.1336,203.1
315.1447,198.3
315.1612,5031.3
315.1876,376.3
315.1965,234.3
315.2921,254.2
315.3236,6548.4
315.4858,110.2
315.4893,96.9
315.6242,284.4
315.663,281.6
315.7717,310.1
315.7865,140.8
315.7981,19.6
315.9139,362.4
315.944,30.2
315.9788,779.9
316.0102,210.8
316.0676,456.2
316.0774,47127.7
316.0834,828011.1
316.1119,494.1
316.3286,148
316.4071,197.4
316.5208,169.9
316.6181,178.6
316.662,25.5
316.6969,408.7
316.7708,117.3
316.797,93.9
316.8388,810.6
316.9271,111.4
317.056,403.5
317.065,923.6
317.084,96254.9
317.1074,608.1
317.1437,17.1
317.1873,199.8
317.3154,83
317.4294,587.4
317.4526,21.2
317.6843,324
317.7314,135.3
317.9014,145.6
317.9667,335.5
318.0875,10184.4
318.1541,312.1
318.2123,720.6
318.2686,366.5
318.3516,197
318.3715,477.2
318.5073,618.4
318.6089,608.2
318.7707,179.6
318.7923,720.7
318.8033,1679.4
318.8147,462.4
318.823,242
318.8689,93.6
318.9231,246.2
318.951,116.5
319.1946,29269.8
319.2054,222.7
319.4331,146.9
319.6033,824.2
319.7793,203.8
319.8654,782.9
319.9056,517.2
319.9229,507.7
319.9472,420.4
319.9737,588.2
320.0093,19.9
320.0513,19.7
320.0742,48.7
320.1976,2051.3
320.2587,2135.1
320.3257,156.4
320.3893,175.6
320.3945,785.4
320.4922,738.4
320.6966,639.1
320.7113,613.1
320.7211,200.7
320.8003,2601.4
320.8303,23.2
320.8456,278.9
320.9128,297.8
320.9562,106.4
321.1538,136.3
321.1836,564.5
321.2102,6935.9
321.2557,81.6
321.262,81.9
321.2889,292.7
321.5108,711.7
321.7276,309
321.7728,131.7
321.7952,144.6
321.8162,137.9
321.867,426.8
321.9292,693.7
321.9981,22.7
322.0085,252.3
322.0911,258.9
322.1355,17.7
322.2031,165.3
322.286,96
322.5894,740.2
322.6347,160
322.8121,450.1
322.9318,1042.5
322.9518,360.4
323.0015,183.3
323.0204,9733.5
323.0448,139.6
323.2261,796.6
323.2323,142.6
323.4783,525.5
323.6015,262.3
323.6957,19.1
323.7626,147.1
324.0016,10175.5
324.0222,687.2
324.2064,24
324.2716,100
324.3652,538.2
324.3937,301.3
324.5416,122.2
324.6263,205.5
324.6544,1545.5
324.6644,1971.8
324.675,5207.1
324.69,1416.6
324.7418,358.3
324.8105,957
324.8526,1541.4
324.9197,927.7
324.933,45.1
325.0029,733.1
325.0965,525.9
325.1907,93.7
325.4765,17.6
325.554,300.4
325.5691,149.5
325.598,24
325.613,110
325.8498,89.6
325.9509,283.8
326.0042,24.8
326.4758,433.6
326.519,108.7
326.798,312.4
326.8502,2305.5
326.8994,231.4
326.931,627.2
326.9608,47.6
327.0154,2643.4
327.0514,1318.6
327.1007,548.2
327.1506,19.1
327.1806,557.7
327.227,829.6
327.4038,392.3
327.4268,166.9
327.626,396.9
327.8926,373.4
327.9268,452.7
327.9351,370.2
328.003,125.7
328.0643,19.3
328.0753,145.4
328.1175,166.4
328.2745,139.8
328.3456,95.9
328.3572,46.5
328.4158,94
328.4717,131.2
328.4908,870.5
328.4982,45.7
328.5034,91.7
328.5125,305.1
328.618,192.7
328.9629,212
328.9953,317.6
329.0959,2396.2
329.1071,19.3
329.1916,181.9
329.2548,135
329.4888,356.7
329.5232,160.3
329.7052,449.8
329.7369,133.3
329.7752,101
329.8376,509.3
329.8905,752.7
329.9182,99.7
329.9896,106.9
329.9986,388.9
330.0184,17.4
330.0433,22.1
330.0524,753.9
330.0589,73.9
330.0995,109.1
330.6931,505.9
330.7614,186.2
330.7886,162.6
330.8477,19.5
330.978,509.2
330.9907,161.9
331.0091,501.1
331.0192,1236.2
331.0453,81257.7
331.0541,957870
331.1649,566.4
331.3301,262
331.3571,392.8
331.4372,99.7
331.4547,529.9
331.5301,56.9
331.7702,522.1
331.8906,354.2
331.9213,134.9
331.9386,143.7
331.977,244
332.0255,28.2
332.0479,3893.2
332.0574,85292.5
332.0956,176.1
332.1642,281.5
332.2426,910.2
332.265,573.9
332.5122,87.5
332.6403,47.1
332.6511,578.5
332.7157,181.8
332.7395,511.3
332.9608,542.4
332.9659,108
332.9782,132.8
333.0054,671.4
333.0266,18.6
333.0522,56686
333.0578,7810.5
333.1266,392.9
333.1514,533.4
334.0556,3210.6
334.0899,33.2
334.1294,349.9
334.1313,347.8
334.1346,226.9
334.4849,1184.6
334.5203,182.1
334.8169,98.1
334.8369,79.5
334.864,290.5
334.9237,597.4
334.9628,19.4
335.0141,137.2
335.0397,253
335.1672,1778.8
335.1776,179.1
335.2653,119.7
335.3277,641.8
335.3883,93.8
335.4115,569.5
335.4964,291.6
335.5524,135.8
335.641,451
335.711,641.6
335.7852,398.8
335.8626,692.9
336.0106,21.3
336.185,180.4
336.2936,514.8
336.31,140.3
336.3604,104.7
336.5139,168.6
336.6417,19.8
336.6853,629.8
336.9404,124
336.9992,198
337.0361,14344.7
337.0496,19488.9
337.0621,563715.4
337.1373,126.8
337.1826,225.7
337.214,46.2
337.2738,8693
337.373,104.3
337.5167,605.5
337.6007,174.5
337.8224,595.1
337.9215,101.9
338.0015,418.3
338.0531,180.4
338.0654,52841.8
338.7074,300
338.889,240.5
338.9211,1774
338.9486,88.2
339.002,144.2
339.0381,2298.9
339.0474,852.3
339.0658,4286.4
339.0985,694
339.1085,105
339.1982,76.3
339.2242,49.8
339.2896,1876.6
339.3273,177.4
339.3424,271.5
339.3744,46.2
339.9668,544.2
339.9758,918.9
340.0363,369
340.0761,392.4
340.1309,47.1
340.2253,778.5
340.4362,267.4
340.7227,466.8
340.9038,658.4
340.9126,194
340.9516,563.8
340.9814,510.2
340.9845,517
341.0183,147.3
341.1367,577.4
341.3049,4065.4
341.3536,386.4
341.3694,19.9
341.413,324.5
341.4856,233.4
341.8505,1434.5
341.9898,435.2
342.0152,9009.2
342.0787,353.6
342.2783,81.4
342.3762,89.5
342.39,670.9
342.546,769.5
342.7427,95.1
342.8337,395.8
342.8804,48.4
342.8981,1089.4
342.9718,110
342.9946,798.6
343.1947,7126.8
343.3972,717.9
343.4625,21
343.7575,455.4
343.8395,570.6
343.9883,989.2
344.2326,717.3
344.4167,18.5
344.4432,171
344.6192,135.8
344.743,302.6
344.9676,622.1
345.0441,294.7
345.9837,48858
346.0103,132.4
346.019,123.5
346.0408,182.8
346.344,561.4
346.5235,148.7
346.7334,21.1
346.744,231.1
346.8457,19.7
346.8527,256.3
346.957,656.2
346.9874,1677.8
347.0175,4727.5
347.0991,258.4
347.1547,19.9
347.1772,633.5
347.2633,113.4
347.4695,178.4
347.5504,179.4
347.6019,453.3
347.6225,392.9
347.8699,114.3
347.9852,532.2
348.0637,20.5
348.093,218.2
348.5987,317.8
348.6651,342.2
348.7415,150
348.782,47.9
348.8806,328.2
349.0178,1052.9
349.048,289.6
349.0895,93.8
349.1164,610.5
349.1266,127.3
349.3759,154.3
349.5592,92.2
349.6199,130.7
349.6484,19
349.6817,148.9
349.6898,106.4
349.7383,18.5
349.9519,345.2
349.9758,305.4
350.0134,22.1
350.0338,528.7
350.2007,86.8
350.2376,420.3
350.2396,411.8
350.2443,310.5
350.2933,794.5
350.326,365.8
350.5399,704.7
350.7436,200.9
350.7941,334
350.9011,669.1
351.0128,115.2
351.2203,20.2
351.4237,266.7
351.5452,504.2
351.8947,353.3
351.9283,18.4
352.0956,156.2
352.1172,107.3
352.3314,646.5
352.3455,285.9
352.3717,245.2
352.5209,93.4
352.7135,501.2
352.806,142.8
352.8863,390.8
352.8957,382.4
353.0272,124880.7
353.036,203925.2
353.0444,154.4
353.0616,127.7
353.0873,683.8
353.4361,199.6
353.509,48.7
353.518,300.4
353.5759,536.2
353.7154,617.2
353.7922,143.6
353.8372,207.3
353.8931,21.2
354.0303,10229.3
354.0393,18531.5
354.0599,145.7
354.068,183.1
354.1254,119.4
354.2423,20.8
354.2623,416.6
354.4859,139.5
354.6404,125.6
354.6746,124.9
354.8303,53.9
354.8454,20.4
354.8951,1678.5
354.9471,93
355.0117,864.9
355.0343,12417.9
355.0703,612.9
355.0962,111.7
355.1933,20.2
355.263,162.8
355.3302,148.6
355.571,517.8
355.7338,152.2
355.8618,20.7
355.9335,323.2
355.9398,23.1
356.015,64.3
356.0257,181.5
356.0423,636
356.0698,94.8
356.0904,184.5
356.1229,20.2
356.1621,20.1
356.2231,643.1
356.2576,108.6
356.3044,358.9
356.4568,513
356.4698,676.7
356.8845,543.4
356.9744,94.7
356.9925,485.8
357.0087,333.7
357.067,43.1
357.2052,595
357.3953,126.4
357.5902,20.4
357.6834,908.4
357.6981,525.2
357.7591,19.7
357.84,93.9
357.8464,123.1
357.9774,1297.8
358.0674,18.6
358.0841,176
358.1463,56.1
358.5258,499.6
358.5428,18.9
358.6295,18
358.7433,117.9
358.7558,740.9
358.8442,567.8
358.8994,432.1
358.9118,19.8
359.0075,245.1
359.0315,16279.9
359.044,392074.7
359.1884,147.2
359.2167,603.4
359.267,577.9
359.3289,365.6
359.3421,20
359.3811,113
359.4168,127.9
359.4295,182.2
359.4367,169.9
359.443,433.6
359.4653,891.8
359.4727,232.9
359.4827,751.4
359.4993,402.6
359.5104,21
359.5201,1054.4
359.5248,1006.3
359.5406,289.2
359.5609,386.6
359.5627,383
359.5815,409
359.5959,19.3
359.6759,189.3
359.6928,600.2
359.878,102.4
360.0107,21.9
360.0353,128
360.0474,34257
360.2893,412.5
360.3079,168.9
360.3191,90
360.3242,99.2
360.5224,569.6
360.5791,610
360.7874,343.6
360.9167,506
360.9571,105.7
361.0128,557.1
361.0202,6503.7
361.0288,133
361.0396,111.4
361.048,1299.9
361.2176,353.4
361.2347,358.1
361.9577,16182.2
362.0236,374.8
362.2667,102.1
362.3114,141.6
362.4122,110.8
362.7861,331.8
362.9266,1177.4
363.0534,458.3
363.7427,21.4
363.7897,19.9
363.9551,253.7
363.9976,3649.7
364.0451,158.7
364.0525,167.8
364.1717,1221.2
364.4342,114.8
364.5075,21.8
364.5617,137.3
364.6916,360.3
364.8162,718.6
364.8967,303.3
364.9103,532.2
365.0265,659.6
365.0548,367.2
365.0723,427.3
365.1057,8066
365.2363,275.1
365.3332,284.2
365.5026,551.5
365.5822,159.9
365.7604,624.2
365.945,637.3
365.9862,22.5
366.045,546.3
366.1331,96.6
366.1395,1492.1
366.2624,20.9
366.4152,380.3
366.6993,658.4
366.7919,635.9
366.8765,155
366.9387,20.5
366.9899,317.4
367.1212,3233.2
367.1955,846.9
367.5115,90.4
367.6335,132
367.658,246.5
367.9147,152.7
367.9915,2411.7
368.0026,774.6
368.0854,579.8
368.1277,59.8
368.2787,334.8
368.4164,317.3
368.7509,564.8
368.805,312.9
368.9374,18.1
368.9915,3330.6
369.0006,14269.1
369.01,7543.2
369.1401,146.5
369.3521,75.8
369.3988,122.3
369.6517,712.9
369.7782,234.1
369.7861,89.9
369.9484,85.1
370.0034,292.9
370.1978,20.6
370.6627,18.6
370.8676,620.2
370.9896,456.8
370.9999,2211.3
371.0414,915.8
371.0774,148
371.6351,668.3
371.7776,147.9
372.0226,728.5
372.0789,346.8
372.1734,123.8
372.3743,181
372.3896,17.6
372.506,603
372.5125,719.6
372.6816,330.5
372.7386,373.3
372.7704,418.7
372.8691,19.3
372.916,154
372.9958,314.2
373.0029,594.6
373.1148,551.5
373.1489,362.7
373.2446,52.4
373.5707,625.5
373.8417,606.9
373.8563,264.6
373.9413,20.3
373.9499,48.4
374.0294,518.7
374.0511,122.2
374.0976,391.1
374.2589,219
374.4477,99
374.4916,668.1
374.5661,444.2
374.7529,19
374.8444,351.3
374.8965,121.3
375.009,132547.9
375.018,113032.6
375.0866,314.5
375.4909,139.8
375.6146,214.3
375.6664,682.3
375.7072,440.5
375.7923,406.2
375.8252,22.1
375.8886,89.4
375.9644,53.4
376.0123,11662.9
376.0212,8145.4
376.2438,663.1
376.3307,1278.5
376.4561,146.2
376.5391,714.1
376.62,122.6
376.6493,154.2
376.7076,287.3
376.7525,104.2
376.7776,797.1
376.8328,107.9
376.8978,415
376.9941,1814.6
377.0164,4658.9
377.1082,191
377.1845,743.8
377.1973,543.4
377.2275,526.8
377.249,150.9
377.3251,89.9
377.4555,109.9
377.4689,18.9
377.5002,26.7
377.5975,21.1
377.8082,19.5
377.9315,1131
378.0265,93
378.1308,302.4
378.2816,308.3
378.3033,691.1
378.3178,373.7
378.3343,145.4
378.5893,126.8
378.8257,91.9
379.0402,480.6
379.1902,687.3
379.2157,374.6
379.2861,128.2
379.3315,208.5
379.3679,702.3
379.5701,18.4
379.7779,401.3
379.9632,102.4
380.08,18.8
380.107,569.1
380.2703,167.3
380.3745,95.9
380.7703,491.5
380.8599,761.8
380.9137,585.7
381.0135,25633.8
381.026,240571.6
381.0794,1949.6
381.2726,96.5
381.6793,105.6
381.7295,85
381.9054,96.8
381.92,300.1
381.9516,158.5
382.0134,685.3
382.0292,21007.7
382.4758,181.5
382.7673,864.3
382.8092,116.6
382.8659,110.1
382.8862,136.5
383.0107,1036.1
383.0303,573.4
383.1163,130527.2
383.1589,328.8
383.2493,50.1
383.2762,688.9
383.3515,391.7
383.4421,787
383.4654,441
383.4982,22
383.659,931.6
383.7461,47.4
383.9231,175.4
383.9655,1183.3
383.9855,111.5
384.1198,13223.8
384.3653,405.3
384.5886,94.8
384.6731,598.8
384.764,764.3
384.9486,46.1
384.9731,366.9
385.12,854.3
385.3131,150.5
385.3749,541
385.4089,516.5
385.4694,153.8
385.5446,17.7
385.5945,88.1
385.7568,773.1
385.8492,161.3
385.9454,20.2
385.9792,15354.7
386.2386,522.2
386.341,429.3
386.4114,259.7
386.6052,281
386.6398,572.3
386.7125,342.1
386.9755,466.3
386.9914,339.8
387.0274,558.3
387.0322,565.5
387.2037,672.4
387.2814,480.4
387.3626,82.8
387.436,145.7
387.4469,94.3
387.6052,59.4
387.6721,539.5
387.9015,108.6
387.9783,1197
388.0902,91.1
388.4664,668.4
388.9223,547.1
388.9306,399.1
389.0422,480.1
389.2955,19.3
389.519,287
389.5476,158.3
389.6997,619
389.9506,42.9
389.9735,49862.6
389.9852,128.8
390.1831,20.7
390.2905,274
390.4558,279.5
390.5946,309.7
390.7981,1052.8
390.8243,86.1
390.9058,914.3
390.9089,893.9
390.9234,417.3
390.932,402.8
390.9497,799.9
390.9568,1386.3
390.9742,9158.1
390.9826,21395.8
390.9919,12346.8
391.2075,293
391.3853,117.2
391.4904,97.4
391.5272,390.3
391.7168,22.5
391.7538,223.2
391.8676,201.5
391.9428,565.6
391.9779,127
391.9844,625
391.9951,203.1
392.0047,87
392.0671,150.5
392.6395,730.8
392.719,228
392.7707,108.9
392.7958,2044.2
392.9817,3807
393.0953,121.1
393.2341,414.8
393.3288,261.1
393.3468,135.5
393.4818,658.7
393.9722,96.3
394.1016,574.4
394.2058,603.2
394.3608,93.3
394.9343,377.4
394.9457,132.8
394.9771,426.9
394.9905,304.3
395.0229,474.7
395.169,130.5
395.2061,371.4
395.3141,96.9
395.4158,691.7
395.6088,413.4
395.7814,104.9
395.8192,176.2
395.8259,748.9
395.8453,156.9
396.0835,227.6
396.1071,95.4
396.2746,89.5
396.5305,177.5
396.7301,164.8
396.7439,548
396.7655,164.7
396.8009,303.5
396.8642,21.1
396.991,181126.8
396.9999,69722.8
397.0814,301.8
397.1073,655
397.1637,186.9
397.4911,711.3
397.9633,498.8
397.9944,13129.7
398.0034,2586
398.2046,794
398.2414,1065.7
398.357,165.1
398.6494,486.8
398.741,3024.8
398.9985,2094.6
399.0457,19.9
399.236,1004
399.2924,289.3
399.3261,387.9
399.6583,19.2
399.8178,534.7
400.0258,164
400.088,317.8
400.4343,434.7
400.6249,327.1
400.6801,658.2
400.7381,1725.1
400.7524,405.1
400.8273,1123.1
400.8778,417.9
400.9093,775.5
400.9635,188.8
400.983,546.2
401.0646,171
401.0837,88.2
401.1614,128.8
401.3514,555.8
401.366,398.8
401.3943,181.1
401.4907,133.4
401.9532,3827.1
402.2836,820.1
402.4033,600.5
402.4619,304.4
402.5226,291.9
402.825,929.7
402.883,164.1
402.9162,18.8
403.0079,260279.5
403.2671,408.5
403.5185,96.5
403.9157,368.3
403.9229,175.8
403.942,1951.2
404.0112,22213.4
404.0445,19.3
404.0639,116.5
404.1672,233.2
404.244,19.2
404.3849,553.4
404.4606,710.1
404.6165,433.4
405.012,1045.5
405.1364,539.5
405.417,367.1
405.5221,90.3
405.6207,549.9
405.8025,84.7
405.8538,18.7
405.8796,526.1
405.9475,28901.5
406.3293,720.2
406.4771,145
406.5374,101.5
406.5598,360.1
406.682,716.1
406.7724,1905.1
406.9531,999
407.0458,110.4
407.2295,358
407.3327,96.7
407.393,21.3
407.4724,166.3
407.4811,363
407.6277,23.2
407.7697,183.3
407.7817,171
407.8564,21.7
407.8684,234
407.8792,17.9
407.909,109.4
407.9467,685.6
408.0278,323
408.0752,584.9
408.15,123
408.2154,645.9
408.3255,116.7
408.3726,414.1
408.6286,97.1
408.6567,810.7
408.7537,189.4
408.7694,1960.3
408.8561,101
408.9465,130.5
408.9574,380.5
408.9845,763.1
409.1124,465.9
409.1586,566.4
409.3154,142.9
409.3439,1587.5
409.5734,103.9
409.7333,558
409.8649,99.2
410.1019,425.7
410.3464,381.4
410.5413,309
410.5959,17.9
410.6574,294.5
410.7175,485.2
410.856,701
410.9672,114.2
411.2506,86.9
411.3365,143.4
411.3584,20.8
411.3675,340.3
411.5538,158.8
411.8936,111
411.9871,521.6
412.2263,97.7
412.3214,2686.8
412.5051,387.1
412.5196,453.8
412.5384,475.4
412.8532,324.2
412.9093,175.3
412.9643,44421.2
412.9736,11094.2
413.0527,329.1
413.0748,637
413.1206,18.9
413.1885,505.9
413.2664,3674.8
413.3248,330
413.3685,556.9
413.5326,793.5
413.7823,691.4
413.9391,209.6
413.9678,717.5
414.1136,144.2
414.2066,467.1
414.2695,238.4
414.3278,21.4
414.5428,18.9
414.6072,376.2
414.7079,379.8
414.7317,335.8
414.7421,610.7
414.8196,155.1
414.9638,1906.7
414.9967,799.7
415.0369,34.4
415.1164,19.6
415.124,108.5
415.2216,721.4
415.2954,48.1
415.4877,506.3
415.78,601.7
415.8228,627.8
415.8513,531.4
415.9768,52.2
416.1352,7608.6
416.147,135.9
416.2143,50916.7
416.4905,52.9
416.8017,823.7
416.9368,145.6
416.9587,215.4
417.0025,317.2
417.2175,4319.8
417.2445,308.5
417.6386,243.9
417.6748,175.1
417.8283,26
417.8883,183.6
418.1984,139.7
418.2765,695.5
418.3583,98.9
418.3942,47
418.4371,19.6
418.7057,961.5
418.7417,684
418.8208,529
418.9818,93339.4
419.1098,565.7
419.2074,692.5
419.2468,406.6
419.2561,660.6
419.6617,294.2
419.9559,25.6
419.9721,271.4
419.9851,4027.9
420.0016,783.8
420.1261,20.3
420.1398,199.2
420.2397,431.6
420.3003,200.5
420.4711,138.1
420.7962,414.8
420.9032,87.3
420.9809,3355.5
421.0767,144
421.7467,887.7
421.9215,7502.1
421.9574,515
422.1866,228.9
422.2125,336.3
422.3022,20.5
422.3508,298.8
422.3884,46.2
422.9674,225.6
423.0446,196.6
423.2002,195.8
423.3072,181.1
423.6016,129
423.6375,308.8
423.6567,22.9
423.8721,182.3
424.0832,197.3
424.1583,141.5
424.1666,545.3
424.2611,357.7
424.6957,18.9
425.343,501.6
425.4203,211.6
425.5177,336.5
425.5726,239.7
425.6749,18.4
425.7305,260.6
425.7735,91.7
425.8872,760.2
425.99,546.9
426.2659,106.7
426.516,460.1
426.6489,88.7
426.942,97.5
427.1033,774.2
427.2435,562.4
427.3351,221.8
427.6964,106.4
427.8912,173.6
428.3076,22.4
428.51,560.9
428.5589,510.3
428.7228,287
428.7454,524
428.7538,117.1
428.9207,270.6
428.9375,9144.1
429.0245,286.1
429.0373,178.2
429.046,32.3
429.0565,20.5
429.0655,249.5
429.0759,724.1
429.0889,330.2
429.2644,598.2
429.8421,122.1
429.9404,103.6
430.0887,27.3
430.23,386.8
430.2994,746.4
430.5141,189.5
430.6965,521.6
430.8987,118
430.9139,1007.8
430.9374,116
430.9489,682.6
430.9917,155.9
431.067,171.6
431.0855,47.1
431.2177,3738.4
431.2569,112.9
431.9492,37.7
432.3853,177.5
432.4681,115.3
432.5345,471.9
432.5537,180.6
432.739,414.4
432.8541,314.8
432.9029,149.2
432.9648,138.1
433.0321,148.9
433.136,19.5
433.2495,101.3
433.4568,341.8
433.4909,155.3
433.6362,274.7
433.7689,684.6
433.9081,481.1
434.0397,173.4
434.0622,20.7
434.4637,462.2
434.5065,146.1
434.7896,588.4
434.9559,13500.8
435.2022,348.9
435.2134,443.9
435.5023,151
435.6616,215.4
435.9156,191.5
436.0272,296.5
436.2099,128
436.4071,100.2
436.4714,86
436.4948,397.4
436.685,227.3
436.8209,420.2
436.9531,699.6
437.1231,519.8
437.3038,550.8
437.347,552.3
437.6621,335
437.7457,578.3
437.7635,19.2
437.8476,203.3
437.9719,233.2
438.1089,204.5
438.1309,503.7
438.1845,21.3
438.1963,1299
438.2536,122.8
438.3606,172.7
438.7822,167
438.9609,307.6
438.972,2989.3
438.9848,5129
439.0832,554.2
439.1597,403.2
439.754,384.3
439.9322,168.6
439.9377,183.8
440.0123,406.9
440.0512,305.5
440.0852,98.4
440.1064,297.5
440.1534,445.1
440.3001,186.1
440.401,111.6
440.5863,349.9
440.7264,449.1
440.9685,469
440.9823,362
441.0665,236.3
441.1686,532.5
441.2979,157
441.6424,289.9
441.9126,136.3
442.071,100.8
442.1951,500.7
442.2819,525.5
442.3022,67.5
442.622,373.6
442.7224,410.8
442.8836,19.8
442.9198,171.4
442.96,90
442.9838,390.7
443.0053,774.4
443.0221,508.1
443.1605,573.4
443.2522,618.2
443.9381,123.7
443.9724,71.6
444.1138,310.6
444.2843,131
444.4262,97.5
444.9109,308.3
445.233,783
445.2703,89.6
445.5367,172.1
445.8972,560.6
446.1584,185.7
446.2453,555.5
446.2849,106
446.3596,145.8
446.3771,471
446.4557,110.7
446.5412,17.8
446.6716,306.4
446.739,141.3
446.8713,171.1
446.9933,349.8
447.4654,48.9
447.5518,372.2
447.6624,544.9
447.6745,337.7
447.7052,544.8
447.752,93.9
447.9048,263.2
447.9322,4778
448.4019,480.2
448.4414,402.3
448.6009,85.3
448.6544,150
448.7555,605.8
448.7838,135
448.8111,448.3
448.8659,149.4
448.9324,2813.2
449.0027,50.6
449.1541,2697.3
449.165,132
449.4452,175.7
449.7465,129.2
449.7763,19.2
449.9292,447.9
449.9797,327.8
450.1577,513
450.2928,184.5
450.3787,197.9
450.4181,230.9
450.4653,190.4
450.7442,21.7
450.7545,426.2
450.7994,360.4
450.9445,284.1
450.9928,19
451.1501,162.2
451.1631,278.1
451.197,369.2
451.7805,82.7
451.8994,165.3
452.0577,148.9
452.1888,24
452.4385,587
452.4418,596.2
452.7983,673.2
452.834,176.8
452.9136,587.5
452.9671,400.4
452.9792,110
452.9983,224
453.0097,18.4
453.1,19.1
453.5878,191.6
453.5971,89.6
453.6302,350.8
453.9099,469
454.0812,381.3
454.1602,119.6
454.171,602.6
454.3179,24.3
454.4752,490.1
454.8166,142.6
454.8548,609.9
454.8755,91
454.9245,530
454.9369,34
454.9497,41126.3
454.9954,114.1
455.2256,641.8
455.3818,1051.4
455.6076,304.4
455.9526,628.7
456.0752,166.5
456.2715,20.2
456.3464,116.7
456.4259,315.9
456.4853,623.8
456.6413,102.7
456.6997,1041.4
456.7863,725.5
456.9283,22.1
456.9467,6429.8
456.9709,102
457.0908,442.1
457.218,140.5
457.2326,11430.1
457.2678,712.7
457.3863,20.2
457.6849,110.3
457.7517,319.8
457.828,527.8
457.9571,140.7
458.0779,99.4
458.1318,130.9
458.1656,244.4
458.2368,409.9
458.3463,540.7
458.391,462
458.4946,18.6
458.6971,969.7
458.9307,312.7
458.9614,732
459.0915,18.9
459.2042,122.1
459.2484,298845.1
459.4828,99.7
459.7088,401.8
459.9443,39.7
460.0335,18.8
460.0975,184.5
460.1698,101.1
460.1976,144.1
460.2517,59723.9
460.3054,522.3
460.4628,670.2
460.5933,125
460.6598,174.8
460.7378,551.2
460.8471,833.7
460.9665,79230.1
461.0673,312.1
461.2554,3742.6
461.5311,297.7
461.5598,247.3
461.9028,128.2
461.9699,4495.7
462.1105,440.7
462.2437,93.5
462.3037,271.4
462.3528,496
462.6977,309.2
462.7618,632.1
462.7757,437.1
462.9637,21088.2
463.3411,103.6
463.4263,432.9
463.5313,571.7
463.5435,94.8
463.5913,292.1
463.7336,19.4
463.9066,2070.6
463.9443,364.8
463.9673,511.3
464.1672,167.8
464.4294,18.6
464.4459,22.5
464.5229,144.6
464.6006,554.3
464.8843,351.6
464.8982,265.2
464.9783,10328.1
465.0457,19.4
465.077,427.6
465.2929,18.6
465.3135,312.4
465.4788,98
465.6264,18.5
465.7609,236.3
465.8276,126
465.9034,97
465.9819,456.5
466.3236,458.7
466.5141,255.9
466.6145,165.1
466.805,132.4
466.8717,19.2
466.9306,308.5
467.2259,50.3
467.3749,160.8
467.4172,312.9
467.541,266.6
467.58,89.8
467.8584,149.5
468.0816,235.9
468.0984,655.8
468.3084,2448.6
468.3353,484.3
468.4126,551
468.4625,242.4
468.6633,565.5
468.6885,252.7
469.1298,349.3
469.1404,23.6
469.6477,103.3
469.8052,495.5
469.9917,600.8
470.068,149.5
470.1033,207.4
470.2618,53.5
470.5677,95.9
470.6483,432.8
470.7576,669.5
470.9233,12967.7
470.9951,3646.5
471.0068,706.2
471.2154,451.1
471.3875,111.2
471.3992,19.1
471.5502,297.5
471.6831,342.9
471.9716,478.2
472.1503,18.4
472.1911,19.9
472.3049,594.9
472.3361,18.7
472.421,265.5
472.6738,345.1
472.9207,2902.1
473.0061,402.6
473.0222,1386
473.0382,494.7
473.0621,117.5
473.0875,19.3
473.1479,112.1
473.2634,921.6
473.317,510.4
473.3478,118.4
473.7754,99
474.0388,118.8
474.1807,217.2
474.2606,399.7
474.4024,515.7
474.5948,521.5
474.9653,149.3
474.9855,231.8
475.0735,97.6
475.1321,18
475.2223,16410
475.2627,355
475.7801,18.9
475.8484,380.2
475.8958,151.1
476.0234,268.6
476.0975,635.3
476.1927,420.6
476.2256,3079.6
476.4208,706.1
476.4607,99.7
476.5851,634.6
476.7202,221.8
476.7398,157.1
476.7551,269
476.9404,41638.8
477.2628,301.3
477.3612,309
477.3873,365.5
477.4617,172.6
477.6544,558.4
477.8067,158.2
477.8223,19.5
477.9437,2836.9
478.2863,102
478.3293,41231.7
478.5579,316.3
478.5984,111.1
478.7572,20
478.9377,10090.1
479.0018,458.2
479.0948,26
479.3324,7356.9
479.4021,562.8
479.5713,370.3
479.6483,254.4
479.7081,476.6
479.7772,99.9
479.8771,204.1
479.9082,404.5
480.1907,464.6
480.2615,143.7
480.273,607.2
480.3453,1572.4
480.6998,531.8
480.7276,152
480.8442,269.5
480.9522,2398.3
481.0914,1912.8
481.2331,504.7
481.4599,19.7
481.5727,19.8
481.6747,537
481.8295,585.4
482.0949,334.3
482.1714,20.6
482.1873,406.8
482.3241,2960.9
482.3593,794.1
482.49,186.7
482.589,18.5
482.6575,108.1
482.7597,540.6
482.7713,271.4
482.7971,400.1
482.8998,46.7
482.9285,367.7
483.0859,81.5
483.1582,313.9
483.2483,126121.5
483.5184,108.4
483.7076,508.6
483.7802,363.6
484.0599,301.2
484.0719,19.6
484.1996,144
484.2515,26878.9
484.3121,521.8
484.5757,148.5
484.9921,173.9
485.1987,122.6
485.264,80416.8
485.9683,375.8
486.0131,114.6
486.1155,732.4
486.2674,16275.2
486.4908,19.2
486.6553,322.5
486.8086,302.5
486.8557,19.1
486.8968,942.5
486.9183,108.9
487.0159,219.4
487.1739,19.2
487.2249,225.7
487.2796,74646.5
487.5049,163.1
487.911,149.9
488.1107,19.7
488.1704,577.6
488.2829,14652.4
488.354,107.2
488.3861,701.3
488.4047,21.4
488.9348,650.4
488.95,20
489.1376,190.2
489.1611,349.6
489.1901,116
489.2078,377.1
489.2637,228.7
489.2747,510.7
489.2846,317.5
489.2935,526
489.337,698.2
489.3717,21.1
489.4482,454.5
489.5199,668.5
489.8787,339.3
489.8924,795.5
489.9227,173.3
490.2049,102.4
490.2908,6071.2
490.39,633.3
490.483,21.6
490.6627,365.7
490.7571,471.7
491.4954,101.1
491.6207,425.3
491.648,127.9
491.8081,385
491.8601,670.4
491.999,48.4
492.116,152.7
492.3442,695
492.9143,6511
492.9954,383.4
493.0434,500.8
493.1239,733
493.4738,258.8
493.8607,25.9
493.917,409.4
493.9592,497.4
494.0231,415.9
494.2201,569.4
494.3241,12302
494.5056,609
494.5079,600.4
494.6011,88.6
494.7537,92.8
494.772,130.7
494.9117,2126.4
494.9292,234.8
494.9357,489
494.9383,485.4
494.9667,929.5
495.2659,514.2
495.2798,175.7
495.309,447.7
495.4464,18.5
495.4992,369.2
495.541,119
495.8889,178.3
496.0435,98.6
496.086,48.2
496.1116,454.4
496.2494,411.7
496.3399,494300.5
496.3657,127.5
496.4156,146.2
496.56,43.8
496.5829,171.3
496.7303,959.9
496.8483,167
496.9313,672.6
497.0727,770.4
497.0848,18.6
497.1095,657.7
497.1849,351.7
497.3432,123883.3
497.4784,167
497.7889,864.6
497.9296,392
497.9986,94
498.3465,8870.2
498.4135,461.1
498.5389,197.6
498.6808,368.7
498.9735,93.9
499.0951,547.4
499.2223,6674.4
499.4874,373.4
499.6218,267.2
499.9258,626
500.1179,187.3
500.1829,128.5
500.4462,101.9
500.4664,156.8
500.596,552.4
500.6821,486.1
500.816,588.5
500.9848,292.9
501.1221,226.5
501.2383,4399.3
501.3135,371.5
501.4437,442.6
501.5428,500.5
501.5531,20.1
501.7342,132
501.9797,134.1
502.3292,21052.8
502.5279,125.3
502.7005,118.2
502.9672,681.2
503.0073,164.8
503.0346,140.6
503.1072,124.9
503.2538,4855.4
503.3321,2206.6
503.4782,19.3
503.6614,272.8
503.7321,127.6
503.8587,572.8
503.8932,397.5
503.9281,400.1
504.0118,313.9
504.1474,623.8
504.1579,25.8
504.3064,3349.7
504.3449,5805.7
504.411,219.1
504.5508,201.8
504.8718,375.7
504.9344,618.4
505.3473,1765
505.4778,18.5
505.5774,537.3
505.6817,531.8
505.8918,782.6
505.9346,1009
506.2643,665.6
506.3392,636.2
506.36,6368.4
506.8697,244.2
506.8907,2628.7
506.9398,112.6
507.0422,18
507.0744,309.2
507.1479,137.5
507.2484,17950
507.365,59
507.6656,311.3
507.7026,255.2
507.8597,52
507.8883,109.4
507.9887,904.1
508.0946,18.9
508.1389,18.4
508.2512,2621.2
508.2758,24.2
508.4236,676.3
508.8406,21.7
508.8874,1396.5
508.9482,286.9
509.0041,3671.8
509.1102,490.6
509.129,198.2
509.2638,8626.4
509.3542,23.2
509.9182,306.9
509.9316,442.1
510.2666,1239.4
510.3553,5889.8
510.3916,100.1
510.6596,455.6
510.9022,870.4
511.4639,168
511.6834,261
511.9693,938.9
512.1434,167.1
512.2295,365.1
512.2971,139.7
512.3344,704.2
512.4714,115.1
512.7113,558.6
512.9081,15853.6
512.9809,903.6
513.1089,86.4
513.3173,592.3
513.3981,104.4
513.4626,146.3
513.6135,423
513.7015,565.2
514.3844,359.1
514.5665,505.3
514.6573,389.4
514.7661,792.3
514.9053,8367.2
514.9424,742.9
515.0209,1012
515.1738,26.2
515.2843,1244
515.4422,22.7
515.5511,168.2
515.9099,455.9
515.9697,22.6
516.0225,107.6
516.1872,253.4
516.3063,17372
516.3325,161.4
516.3547,187.9
516.6231,232
516.6561,108.3
516.7689,499.1
516.9196,1089.6
516.9669,393
517.089,148.3
517.3096,1486.1
517.3461,251.3
517.3766,114.9
517.3929,124.9
517.4955,226.1
517.5442,124.6
517.6598,106.8
517.8664,101.5
518.234,22.8
518.3218,569338.3
518.3677,245.6
518.4408,582.6
518.6337,193.4
518.7442,552.8
518.8307,18.2
518.925,31249.8
519.1717,114.7
519.3252,139487.5
519.3451,93
519.3616,471.1
519.4277,48.9
519.5436,162.5
519.6556,68.9
519.7443,573.5
519.7704,150.1
519.8252,824.3
519.9295,1299.4
520.2806,502.8
520.3399,191500.7
520.9222,15812.4
521.1133,488
521.3432,50365
521.3954,541.2
521.5648,658.9
521.8644,444.2
521.9043,119.6
521.9253,899.5
521.977,1079.8
522.0016,292.3
522.2568,509.4
522.3555,154695
522.468,141.8
522.5883,205.8
522.6005,192.7
522.6869,293.4
522.7767,120.8
522.8946,144.8
522.919,1494.8
522.9373,6258.4
522.9663,870.3
523.122,21.1
523.3447,517.9
523.3588,40677.5
523.6472,145.4
524.1317,89.4
524.1515,1038.1
524.249,129.2
524.3712,166684.9
524.4914,548.4
524.5059,181.7
524.6412,744.6
524.6578,160.6
524.8452,19
524.9337,700.3
524.9636,226.8
524.9787,1202
525.0163,340
525.2505,156.8
525.3745,42619.9
525.4258,548.7
525.548,585.4
525.6051,648.6
525.9739,632.1
526.1396,649.8
526.1928,334.2
526.3298,1345.2
526.3776,1392.1
526.4341,350
526.4963,167.1
526.8637,168.6
526.9678,293.5
527.2623,108.2
527.3774,728.5
527.9008,550.5
527.9431,582.8
528.1648,432.3
528.3617,215.8
528.4171,444.2
528.7621,113.9
528.7983,406.1
528.8823,7048.1
528.9273,150.3
528.9535,2636.5
528.9681,525.7
529.0876,602.6
529.2213,118.5
529.2479,184.7
529.4656,132
529.5128,190.5
529.5572,172
529.6327,82.8
529.6473,21
529.6652,18.5
529.9533,138.6
530.2407,130.1
530.301,22.7
530.3527,1090.1
530.4921,90.7
530.5857,161.5
530.7347,332.2
530.7486,90.9
530.7844,495.7
530.8796,3699.6
531.021,421
531.1177,693.4
531.2488,1007.2
531.462,555
531.559,456.6
531.5905,507.9
531.7329,99.9
531.817,738
531.9258,141.7
532.2797,3900.8
532.3376,5804.5
532.8092,105.8
532.9157,1014
532.9661,1491.3
533.1281,91.2
533.2645,683.3
533.3414,1092.8
533.4724,106
533.5248,632.1
533.5581,433.5
533.8907,615.5
533.9075,475.8
534.1764,105.6
534.2958,168126.5
534.3161,906.4
534.3709,100
534.4641,179.1
534.5065,122.8
534.5335,453.5
534.6414,117.7
534.857,366.3
534.8782,686.4
534.899,15226.3
535.2991,39426.9
535.4358,90.2
535.7646,333.5
535.9616,171.2
536.0533,702.9
536.2941,8314.9
536.4112,144.1
536.425,451.3
536.638,445.4
536.6428,450.5
536.7132,784.3
536.7343,236.3
536.896,7161
537.2582,215.5
537.2987,705.8
537.5477,446.6
537.84,18.9
537.9037,426.3
537.951,146.3
538.1086,411.4
538.1622,628.7
538.3436,102.7
538.4854,20.5
538.5378,607.9
538.5551,434.5
538.8923,546.6
538.912,2414.1
538.9328,1746.1
539.0478,97.7
539.2714,22.7
539.3177,605.1
539.6772,615.9
539.8008,369.2
539.9285,212.9
540.3059,3114.4
540.4257,139.3
540.4562,98.3
540.7037,20.4
540.825,262.8
540.898,543.8
541.1166,702.6
541.2452,110.3
541.5904,80.8
541.8178,309.9
542.3218,220081.4
542.3811,315.1
542.4907,704.3
542.859,709.3
543.0942,638
543.1283,86.9
543.3252,61237.2
543.5973,713
543.6721,257.4
544.0421,738.8
544.1251,211.8
544.1714,330.8
544.239,300.7
544.2736,2233.1
544.3376,171731
544.3976,474.1
544.4921,21.6
544.7285,710.4
544.7739,193.4
544.8564,652.3
544.9477,2746.4
544.9837,783.7
545.1217,191.6
545.2333,19.9
545.341,45712.2
545.4048,151.4
545.5473,237.7
545.6578,113.4
545.6949,221.8
545.8485,154.6
545.8923,139.7
545.9233,214.6
546.0756,288.6
546.1188,141.2
546.3531,171541.1
546.3899,97.3
546.6302,55.8
546.6453,273.6
546.6774,264.5
546.8378,238.6
546.8531,684.6
547.1025,90.1
547.3567,42668.9
547.4971,168.3
547.6991,484.4
547.7597,729.4
547.9033,89.8
547.9786,283.4
548.0658,144.2
548.2167,107.8
548.3114,984.6
548.3286,535.9
548.3605,4225
548.4081,138.4
548.5531,96.4
548.6093,152.5
548.7438,167.4
548.8255,369.6
548.8657,518.8
549.2692,128.1
549.4032,705.5
549.484,313.4
549.4968,155.8
549.5442,753.8
549.8605,789.4
549.9723,270.4
550.0749,119.2
550.2923,167.3
550.3907,226.8
550.538,647.4
550.7017,117.8
550.7236,20.4
550.767,22.4
550.8732,1740.2
550.9085,380.2
551.1383,117
551.2926,88.6
551.9123,115.5
552.0221,481.6
552.1039,116.6
552.5107,21
552.5358,152.2
552.6588,617.3
552.87,1719
553.1183,20.8
553.4953,150.5
553.6683,126.8
553.6953,267.9
553.7471,395.1
553.7674,438.2
553.8433,994.9
554.1082,117.9
554.2511,22.3
554.4207,769.9
554.4355,654.7
554.7505,656.8
554.8971,118.8
554.9749,518.6
555.052,358.7
555.2833,107.9
555.3212,565.9
555.3384,270.3
555.373,18.3
555.3845,18.4
555.6498,722.2
556.0307,162.2
556.1285,890.2
556.2503,165.6
556.5483,258.7
556.7123,757.3
557.1363,121.4
557.3526,129
557.918,164
558.136,101.3
558.186,612.1
558.2682,295
558.2958,64953.3
558.5306,788.1
558.5763,318.3
559.0674,124.2
559.2988,16263.8
559.5002,56.9
559.765,262.5
559.8718,321.2
559.9167,123.4
559.9362,252.9
560.0338,317
560.293,2091.4
560.3114,46064.5
560.5309,405
560.5539,699.5
560.5707,236.6
560.6665,498
560.8959,18.5
560.9203,727.8
561.1445,21.6
561.2704,444.4
561.3144,9195.9
561.4134,1520
561.6113,90.8
561.8708,130.1
562.3102,1221.7
562.3272,43983.9
562.4685,212
562.5375,335.4
562.5818,520.2
563.0376,93.8
563.2452,184.9
563.3303,7490.1
563.3542,392.2
563.3919,395.7
563.7777,177.1
564.0121,553.3
564.0767,359.7
564.0903,103.7
564.1098,129.4
564.1386,114.7
564.2008,258
564.2429,162.2
564.3269,1065
564.365,308.4
564.4528,643.6
564.5828,59
564.9877,20.8
565.0405,442.5
565.0593,19.3
565.2435,712
565.852,589.9
565.8916,549.9
565.9446,106.3
566.322,29908.8
566.4693,153.4
566.7509,98
566.8471,688.3
567.0772,600.9
567.1139,117.1
567.1395,163.8
567.2056,394
567.3255,5535.5
568.3376,18679.4
568.4309,804.9
568.4937,597
568.5628,117.4
568.7053,22
568.7454,405.2
568.7652,243.7
569.1131,23.2
569.1804,175.2
569.3413,3762.1
569.7341,18.5
569.7753,146.2
569.8296,558
569.9019,594.3
569.9502,147.1
569.9958,297.3
570.0499,170.9
570.1199,434.8
570.2692,96.2
570.3467,896.2
570.4259,569.8
570.6749,102.8
570.8666,4490.8
570.9106,316.9
571.0026,204.6
571.0379,215.8
571.0584,456.8
571.2212,484
571.3062,170
571.5118,590.1
571.6909,17.2
571.8234,160.6
571.8685,622.7
571.9696,807.5
572.2136,542.3
572.3713,801.7
572.7843,103
572.864,2768.4
572.9816,577.7
573.9101,294.6
573.9346,565.4
574.0474,126.8
574.0732,107.1
574.2834,947.2
574.2989,608.8
574.7883,95.4
574.9456,581.3
575.0006,267.2
575.3772,513.8
575.5033,6033.9
575.7099,385.3
575.726,694.7
576.0288,670.9
576.1578,189.1
576.2457,17
576.2649,535.5
576.2807,6776.2
576.3364,519.3
576.6738,536.6
576.7809,360.7
576.8838,8221.2
576.8951,317.2
577.2846,734.6
577.4517,384.5
577.5196,588.6
577.8072,653.8
577.8859,355.9
578.2129,921.4
578.2776,747.1
578.4012,539
578.8325,211.1
578.8808,9725.4
578.9415,306.5
579.2898,619
579.3427,239.7
579.5523,144.8
579.6063,363.2
579.7371,558.1
579.7899,119.6
580.1073,126.8
580.2601,750.9
580.2908,731.7
580.5629,734.2
580.8793,1482.8
580.8964,4194.7
581.0326,424.4
581.2967,19.8
581.4766,722.4
581.6957,588.8
581.7644,18.5
581.8226,235.1
581.9501,703.7
582.1858,98.7
582.2072,664.8
582.2225,983.8
582.2418,179.5
582.2563,1160
582.2676,1009.2
582.2953,9301.6
582.3201,1277.6
582.3418,426.4
582.3716,249.8
582.4156,163.8
582.4704,525.2
582.4821,112.8
582.7267,22.6
582.8928,724.5
583.2998,1243.3
583.3151,488.7
583.4707,140.9
583.9135,25.9
583.9489,260
584.0657,185.9
584.2944,374.7
584.3111,5770.1
584.3425,185.5
584.4413,219.4
584.684,150.8
584.8732,586
584.9161,1099
585.0374,309.4
585.128,193.6
585.2713,644.3
585.285,320.1
585.5424,219.5
585.7675,525.1
585.8181,727.5
586.0242,299
586.115,412.5
586.2674,418.7
586.3099,6181
586.5391,137.4
586.5932,90.2
586.8407,2714.2
586.908,346.6
586.9338,457.7
587.0621,113.2
587.1737,101.3
587.283,523.5
587.3127,792
587.6218,422.3
587.6867,210
587.9,118.6
588.0051,126.8
588.0652,100.5
588.104,344
588.1708,334.5
588.2646,278.9
588.3402,357.8
588.6899,124.9
588.7078,21.7
588.8128,26.1
588.8376,1829.7
588.8558,183.7
588.8717,95.4
589.1203,19.1
589.449,85.1
589.4604,571.9
590.0872,19.4
590.2043,301.7
590.319,660
590.6346,341.1
590.8062,318.2
590.8361,402.4
590.8826,325.4
590.9246,708.4
590.9396,23.6
591.1014,316.1
591.261,115.9
591.4835,110.6
591.5241,106.1
591.6446,120.9
591.7421,126.5
591.99,399.4
592.0616,50
592.2548,601.8
592.3354,416.5
592.5581,613.8
592.8577,4964.4
593.5366,426.9
594.0638,158.4
594.4502,20.1
594.807,120.1
594.855,4185.2
595.0864,592
595.1425,661.9
595.2893,20.6
595.736,299.2
595.7659,744.2
595.8069,511.5
595.9983,21.4
596.1175,48.4
596.1761,685.3
596.7101,431.5
596.8345,574.7
596.8525,986.4
596.8704,1155.4
597.4499,2377.8
597.4642,437.8
597.4854,9229.4
597.6115,261.4
597.7898,446
598.0117,391.8
598.0963,129.1
598.2338,293.1
598.4022,20.1
598.4857,716.7
598.5917,47.9
598.5974,44.3
598.6484,553.1
598.8224,463.2
598.8674,1495.8
599.1526,20.1
599.4627,743.1
599.502,2143.7
599.649,763.3
599.7919,94.5
599.8426,96.5
599.948,192.7
600.1259,91.6
600.2792,1472.8
600.4777,267
600.6459,299.5
600.678,47.2
601.0895,165.2
601.4816,169.4
601.5191,645.8
601.5321,648
601.761,237.6
601.8023,146.6
601.8479,215.9
601.9899,333.1
602.0959,632.9
602.2772,471.7
602.2959,1091.6
602.8845,366.4
602.9859,740
603.2709,171.2
603.4711,682.8
603.4908,101.2
603.5348,81.4
603.5889,508.2
603.7737,116
604.1149,165.1
604.3116,838.2
604.3987,99
604.7665,163.3
604.7823,21.9
604.8056,844.4
604.8849,464.8
605.0477,48.1
605.1771,790.2
605.2352,569
605.315,895.6
605.36,233.2
605.5252,454
605.5435,585.4
606.0372,17.8
606.3083,799.8
606.4498,194.9
607.338,417.5
607.4459,168.3
607.977,632.2
608.1936,302.2
608.2858,154
608.333,113.6
608.7618,190.9
608.81,170.4
608.8311,1029.9
608.9233,281.3
609.0518,370.9
609.3244,619.7
609.6195,132.5
609.7046,20.2
609.9558,355.2
610.3089,1059
610.6893,124
610.8285,1273.5
610.9848,249
611.0751,570.9
611.1258,550.1
611.5478,285.2
611.6241,90.9
611.6493,54.8
612.1112,280.5
612.3345,689.3
612.452,58.7
612.8238,404.6
612.964,330.6
613.0798,180.9
613.1789,51.6
613.29,171.7
613.4269,141.5
613.5064,274.6
613.5815,293.4
613.7163,177.7
613.7263,179.6
614.0929,254
614.3017,339.5
614.4333,544
614.4973,414.9
614.8626,566.8
615.463,1325.8
615.5742,578.4
615.6601,780.6
616.037,93.5
616.0527,132.8
616.6163,690.8
616.7768,106.7
616.9891,213.1
617.1508,447.6
617.2416,181.3
617.4752,5315.1
618.1732,177.9
618.3144,511.8
618.8938,743.4
619.3116,801.4
619.4024,474.8
619.4911,4938.1
619.649,177.4
619.6665,407.1
619.9599,95.6
619.9907,332.9
620.2992,449.9
620.4937,1934.7
620.5479,541
620.5822,228.1
620.7345,261.1
620.8839,117.8
621.3388,386.3
621.4535,923.2
621.4854,1932.9
621.7753,86.1
621.9502,751.1
622.3988,132.2
622.5572,775.6
622.6953,18.1
622.7959,689.9
622.8566,300.6
622.9143,127.8
623.0717,156.1
623.1359,7898.6
623.3026,150.8
623.3882,222.9
623.4732,705.3
623.5016,422
623.6323,599.1
623.7283,94
624.1404,140.5
624.1777,18.5
624.9922,302.8
625.0378,547.8
625.0785,743.5
625.1801,182.1
625.2985,527.1
625.4641,125.5
625.4909,845.1
625.6653,92.2
625.8919,182.6
626.1396,189.2
626.1794,412.1
626.2323,314.4
626.8093,199.8
627.5087,110.8
627.5355,728.1
627.7972,19.9
628.3283,760.2
628.3798,221.7
628.3903,187.1
628.4533,21.3
628.5386,753.2
628.7708,98.8
628.8256,115.1
629.1529,17305
629.5282,297.8
629.6779,214.9
629.708,515.1
630.1561,2451.8
630.5533,618.2
630.7528,286.3
630.9377,619.9
631.0346,552.6
631.165,129.1
631.2706,399.3
631.3969,133.2
631.4021,151.9
632.0581,136.2
632.2048,223.4
632.3569,605.6
632.5703,19.8
632.8465,759.7
632.9315,644.6
632.9672,143.5
633.02,89.8
633.0723,489.5
633.3544,151.9
633.4458,122.9
633.8309,21.1
634.0681,357.1
634.3138,185.2
634.5908,406.7
634.8234,438.9
634.8433,1695.2
634.9566,630.2
635.5301,142.2
635.5466,710.2
635.6754,572
635.7616,252
635.9127,90.1
635.9545,448.6
636.0693,500.8
636.24,132.2
636.5558,106.9
636.8398,2254.2
637.1083,531.8
638.0995,164.5
638.2391,108.7
638.3401,77.4
638.5,19.3
638.6418,443.7
638.8359,1359.7
638.8868,162.8
639.1085,163.6
639.448,229.2
639.5824,177.4
640.509,177.5
640.5596,828.6
640.6047,74
641.3478,172.6
641.4078,49.8
641.4351,354.9
641.7726,116.3
641.9867,20.9
642.4687,540.4
642.7396,401.3
642.7766,687.5
642.8108,20.3
643.0195,23.2
643.3094,370.8
643.3803,261.7
643.7085,152.8
644.1308,425.5
644.2906,545.1
644.4362,133.3
644.488,128.1
644.5757,717.5
644.6411,692.1
645.1174,7938.9
645.1716,526.1
645.3203,1959.7
645.3723,567.3
645.4652,108
645.4888,742
645.5306,29.6
645.5622,302.5
645.7946,105.6
645.9997,367.1
646.1208,106.2
646.137,101
646.33,398.4
646.4038,45.4
646.6703,344.8
646.77,273.3
646.8481,351.2
646.8888,851.7
646.9858,647.9
647.0874,533.6
647.4731,174.9
647.4919,699.6
647.6372,25.3
647.9135,646.2
648.2221,23
648.3859,1512.8
648.4443,22
648.9678,413.8
649.0976,326.6
649.4685,194.6
649.4917,173.6
649.5834,117.3
649.708,127.3
649.7491,831.6
649.825,434
650.2548,301.7
650.4394,7211.1
650.4983,645.5
650.6396,729.5
650.7244,22.2
650.8164,1735.7
651.0947,83.4
651.1347,32073.4
651.2155,521.8
651.3546,48.5
651.4446,889.8
651.4672,159
651.533,262.6
651.7307,697.5
652.0099,368.4
652.1379,5258.2
652.2229,566
652.3917,191.7
652.4768,354.6
652.5079,163
652.8141,1348.9
652.8296,166.7
653.1399,162.1
653.551,155.4
654.0152,192.3
654.0563,165.1
654.3541,269.1
654.5272,100.2
654.6675,176.1
654.6941,725.3
654.6989,772.3
654.7138,649.2
654.8085,1384.3
654.9687,650.2
654.9762,804.7
654.9805,715.7
655.0678,91.5
655.3155,241.9
655.6572,136.1
656.0209,142.3
656.0857,115.7
656.1313,223.5
656.3409,763
656.3838,18.4
656.593,602.3
656.636,129.9
656.847,47.8
656.9812,230.7
657.2355,102.3
657.5859,91.3
658.0349,580.9
658.3319,95.4
658.4939,203.4
658.6598,185.4
659.0232,757.4
659.1452,47.8
659.3427,269.8
659.5105,95.8
659.6916,181.3
660.03,143.1
660.0822,1432.8
660.1255,212.8
660.1705,211.8
660.4396,993.8
660.8215,207.5
660.9746,100.1
661.0823,4115
661.3635,189
661.4849,386.8
661.7543,415.7
661.8577,150.9
661.9173,115.5
661.9504,586.3
662.0336,223.1
662.1524,736.2
662.3009,148.1
662.501,314
662.7032,779
662.7483,96.7
663.0386,274.3
663.1091,427.4
663.3926,177
663.4261,190
663.455,919.2
663.6299,398.5
663.7416,414.5
663.8097,647
663.9512,589.1
664.1423,162.7
664.1774,21.3
664.3163,19.5
664.3512,526.8
664.4653,430.1
664.5751,155.9
664.9015,19.9
664.9551,99.7
665.1024,215.5
665.388,570.8
665.4106,93.8
665.4302,20.3
665.4483,158.2
665.6942,107
665.8165,53.8
665.8456,19.2
665.9129,234.2
666.0881,731.9
666.1794,658.1
666.2142,818.2
666.4363,52.6
666.4834,3377.6
666.7588,496.2
666.8988,49.6
667.0992,20493
667.4871,754
667.9178,427.3
667.9336,54.8
667.9918,107.2
668.0325,751.5
668.1032,1436
668.2633,520.2
668.7917,116.3
668.9782,537.7
669.0038,87.3
669.6395,703
669.9887,530.9
670.9771,146.9
671.2017,362.1
671.6176,167.2
671.7429,100
672.0529,277.3
672.0728,446.4
672.1174,151.9
672.3182,168.3
672.4215,4129.2
672.5921,656.6
672.711,614.6
672.7761,760.2
672.9915,98.7
673.1166,53060.3
673.528,799.5
673.7144,17.1
673.9985,933.9
674.0748,519.4
674.1204,8380.2
674.2626,129.7
674.7814,297.2
675.0569,420.6
675.0858,218.2
675.124,127.4
675.1848,134.3
675.2354,98.5
675.2753,107.1
675.544,16666.1
675.5896,192.9
675.6366,288.6
675.7677,128.8
676.0049,120.1
676.0471,3021.4
676.3245,19.3
676.406,818.6
676.547,2707.4
676.8526,162.1
676.8955,189.2
677.0042,117.7
677.0676,537.6
677.2285,592.3
677.5282,81.5
677.5814,108.1
677.8273,348.6
677.9671,121.6
678.0443,109.1
678.0721,302.3
678.1921,140.4
678.2679,17.7
678.3034,946.7
678.4727,1079.6
678.5706,346.2
678.635,510.3
678.667,19
678.6899,170
678.789,336.6
678.9115,160
679.6473,158.3
680.3709,64.1
680.4245,493.8
680.7054,240.6
680.8441,99.3
680.9034,352.6
681.2721,259
681.2906,161.2
681.5071,614.9
681.5922,153.3
681.7878,434.8
682.0218,47.3
682.0641,10336.9
682.1429,220.9
682.399,18.7
682.4196,282.9
682.6059,120.5
682.8783,155.2
683.0646,2494
683.4495,1015.7
683.5671,956.6
683.588,184
683.8983,176.5
684.2014,122
684.2365,254.4
684.8618,1100.4
684.9481,90.4
685.0713,469.3
685.4357,8979.4
685.9264,549.6
685.9645,349.5
686.2606,429.6
686.4112,19.9
686.4387,2263.7
686.4681,107.3
686.5173,212.3
687.4887,267.6
687.7174,108.6
688.0844,311.2
688.1464,288.8
688.3491,623.4
688.5331,557.3
688.6004,18.6
689.0386,53.7
689.081,16435.6
689.2146,449.5
689.4662,967.9
689.5603,2263.8
689.8063,260.7
690.0875,555.9
690.0957,676.3
690.4301,674.9
690.4719,812.1
690.566,732.8
690.7447,186.2
690.9088,18.2
691.231,1228.7
691.8425,327.9
692.2998,629.2
692.8023,340.7
693.7389,103.5
694.2139,600.2
694.2409,159.4
694.4955,125.2
694.7992,1345.5
695.0321,616.8
695.0987,38310.2
695.1586,616.5
695.5113,1244.9
695.9159,101.7
696.1023,6180.1
696.5186,93.1
696.73,23.7
696.7912,663.6
696.9513,20.2
697.0537,205.5
697.1032,135.4
697.3389,422.2
697.4652,359
697.5258,14811.7
697.6966,453
698.0287,2854.5
698.3007,651.9
698.5288,4636.1
698.5889,23.7
699.0314,98.1
699.1788,187.3
699.438,786.3
699.473,664
699.6407,567.1
699.7899,330.1
700.0513,220
700.0952,507.6
700.1842,191.6
700.4988,19.7
700.6144,103.3
700.6302,22.3
700.8353,129.4
701.1459,93.2
701.2459,161.4
701.3093,544.1
701.4107,312.4
701.4686,695.9
701.5069,143.3
701.5597,40121.1
701.6137,538.1
701.8678,612.8
701.9192,136.2
701.9769,96.2
702.0673,195.8
702.1052,187.1
702.1508,97.4
702.2994,146.4
702.3411,6150.9
702.5629,13416.8
703.1397,248.3
703.2597,96.5
703.3459,1907.1
703.3788,50.4
703.5184,127.6
703.5753,90818.6
703.617,649.2
703.9533,66.2
703.9806,626.6
704.0466,9097.2
704.1935,152.3
704.2325,298.1
704.448,4688.4
704.4695,186.8
704.5785,36162.9
704.6453,590.6
704.8093,231.1
705.0542,3450.1
705.5811,1735.6
705.9192,573.1
706.1133,176.6
706.2802,426.8
706.3017,97.5
706.4267,414
706.5385,1678.7
706.7667,128.8
706.9891,263
707.0279,97.3
707.3564,21.5
708.0173,87.7
708.0525,114.2
708.0856,24
708.2189,609.2
708.256,518.7
708.472,327
708.7074,545.1
708.7763,514.7
709.3915,497.4
709.6163,338.7
709.6702,204.2
709.6922,163.6
709.9827,93.7
710.1558,691.2
710.4209,192.4
711.013,511.6
711.0629,11427.9
711.0733,12987
711.1956,665.6
711.2533,306
711.3437,124.9
711.4393,189.3
711.5394,659.7
711.663,134.8
711.8219,24.4
712.0062,110.7
712.0655,649.3
712.0759,476.5
712.3397,88.8
712.6314,777.2
712.7158,621.7
713.4848,143.7
713.974,254
714.003,132
714.065,107.5
714.4085,180.2
714.4872,423.5
714.5781,358.2
715.2803,425.2
715.3694,151.2
715.5329,647.8
715.5646,685.3
716.2612,106.2
716.33,90.5
716.4737,162.6
716.7944,408.5
716.9804,188.8
717.0804,18824.1
717.6542,137.1
717.6647,155.6
718.0364,21.5
718.0852,1034.5
718.2567,282.4
718.2911,175.8
718.4212,129.2
718.5291,577
718.5733,678.4
719.4907,186.6
719.5163,281.5
719.5731,160.7
719.6846,1249.3
719.8306,166.8
719.8473,435.5
720.0089,626.6
720.0223,1750.7
720.2771,462.1
720.5022,580.5
720.5968,289.2
720.601,295.6
720.6163,176.6
720.7198,793.6
720.8122,271
720.9652,131.2
721.0571,268.5
721.1755,413.6
721.3101,117.9
721.3725,1160.6
721.4784,45899.5
721.8292,137.5
721.9578,191.4
722.0183,204.6
722.3035,178.4
722.4817,14270.3
722.8841,696.9
723.0901,522.7
723.116,328
723.4943,9029.2
723.5417,30847.2
724.159,185.5
724.2968,18.7
724.3229,900.9
724.4984,457.6
724.5452,10259.9
724.886,160
724.9113,97.7
724.9765,19.4
725.011,503.8
725.0806,579.2
725.1057,269.6
725.3094,87
725.5574,55170.5
725.6548,203.6
726.0028,265.9
726.0278,6616.3
726.5608,23822.6
726.7206,138.7
726.8272,53.9
726.8611,687.6
726.8981,449
727.0524,1615.5
727.1987,230.8
727.5654,2404.9
727.9471,595.1
728.0184,472.3
728.1571,135.4
728.3239,614
728.4129,501.3
728.5204,2488.9
728.6818,334.7
728.9868,147.1
729.0153,933.5
729.279,104
729.3348,170.7
729.5911,7611.6
729.8045,20.5
730.2826,446.6
730.5385,10154.4
730.6016,646.8
730.6893,527.5
731.1841,845.2
731.5405,3343.2
731.6066,6190.4
731.7295,851
731.828,630.7
731.8902,326.4
732.1122,21.6
732.1479,104.5
732.328,917.8
732.4813,1035.3
732.5544,50768.5
732.5927,612.3
732.6109,1350.9
732.6319,181.2
732.8289,192.2
732.8804,148.9
733.0449,6127.9
733.0557,6892.2
733.1403,75.9
733.1704,114.4
733.4843,801.2
733.5578,20924.1
733.6094,1201.6
734.0607,170.2
734.247,104.7
734.2685,85
734.3837,1098.6
734.5284,144.4
734.5707,6007.8
734.6342,163.6
734.6714,49.5
734.7234,19.1
734.7431,94.8
734.757,238.9
734.9738,154.9
735.1412,181.8
735.2321,179.2
735.4998,646
735.5744,455
735.7074,169.8
735.7307,119.5
735.8039,168.9
735.9796,199.2
736.0212,21.7
736.1286,20
736.1815,398.9
736.2909,101.3
736.3149,470
736.6321,567.9
736.7569,603.1
736.8773,393.7
736.9233,1132.3
737.1102,709.4
737.2114,90.8
737.4153,103.7
737.4523,7342.5
737.8433,198.9
738.0106,179.9
738.3877,1312.8
738.4552,1471.2
738.5501,373.1
738.7927,366.6
739.0624,13083.2
739.0928,212.2
739.1173,838.2
739.1352,1132.2
739.1469,1136.8
739.2248,662.4
739.2731,19.9
739.471,736.7
739.5158,1940.5
739.8956,130.3
740.0096,155.4
740.0675,407.6
740.1758,258.1
740.3723,294.7
740.4023,20.8
740.4645,706.1
740.5215,1288.6
740.6924,910.9
740.7276,644.4
740.8064,126
740.9298,323.1
740.9826,20.7
741.2778,71
741.4883,155.2
741.5312,3415.8
742.004,1346.5
742.5329,421.2
742.5751,10488.1
742.6926,307.8
742.8833,84.8
742.8957,264.4
743.1226,77.2
743.4632,705.9
743.535,924
743.5782,2134.8
743.6372,1416.7
743.7592,138.7
744.0171,211.4
744.0896,810.3
744.1595,686.5
744.2252,93.8
744.2467,428.2
744.5546,7281
744.5912,10963.2
744.704,659.1
744.7243,548
744.7501,65.1
744.8535,48.8
745.2769,151.7
745.4785,22010
745.5341,104.3
745.5587,1258.9
745.5926,1735.7
745.7758,633.4
745.8269,522.1
746.2654,76.5
746.2826,82.9
746.481,2224.6
746.571,5828
746.6068,1178.9
747.0463,325.7
747.1304,419.4
747.161,306.6
747.4949,7768.1
747.7172,90.5
748.01,2163.8
748.1037,164.1
748.2901,58.9
748.4324,532.8
748.4948,153.9
748.5362,104.6
749.0195,886.7
749.2515,425.8
749.5095,3493.7
749.6091,92.9
749.9124,426.8
749.9862,272.3
750.0468,707.6
750.3699,280.3
750.4267,105.6
750.4442,184.3
750.5005,133.7
750.9133,174.2
751.0068,231
751.3402,944.6
751.4679,285.8
751.5733,3474
752.0109,19.4
752.3956,325.6
752.5206,8575.7
752.8071,593.6
752.957,105.5
753.044,933.2
753.0786,265.7
753.2128,102.3
753.5237,676.6
753.5892,1759.3
753.812,21.2
754.1204,401.1
754.2694,292.9
754.5367,30622.4
754.6109,168.6
754.6767,132.3
754.7263,48.2
754.8561,163.7
754.8845,541.7
754.9512,772.5
755.0274,3250.2
755.0375,3433.6
755.0815,1617.1
755.1186,149.5
755.4298,20.9
755.4972,914.2
755.5396,9679.1
755.5653,1069.6
755.7476,417.5
755.8157,23.7
755.947,616.3
756.0322,507.3
756.1754,557.6
756.2504,541.8
756.4012,291.3
756.4278,339.1
756.468,303.1
756.5288,722.4
756.554,53585.6
756.9006,133.8
756.9598,135.6
757.0034,166.7
757.1452,94.8
757.4589,101.5
757.5576,21586.3
757.6221,1887
757.931,109.1
758.2194,147.6
758.2794,109
758.4602,486.6
758.5138,134
758.5377,187.1
758.57,1133562.8
758.9708,171.6
759.1325,590.1
759.3245,92.2
759.3965,487
759.5733,497436.2
759.6125,920.7
759.6367,2820.9
760.1189,670
760.5866,362558.1
760.6415,220.5
761.0443,3136.8
761.4007,580.4
761.4205,68.7
761.4525,2226
761.5383,21.6
761.5894,173762.1
761.8204,151.1
762.5924,38717.1
762.6678,118.1
763.0393,425.4
763.1871,195
763.4712,289.6
763.5947,2466.7
763.7892,316.9
763.9794,346
764.136,456.7
764.2329,531.9
764.56,1501.5
764.9749,632.9
765.3876,431.2
765.4138,115.2
765.479,95.8
765.5632,948.2
765.5977,165.3
765.9134,442.3
765.9376,177.8
765.9704,136.2
766.1473,193.4
766.2897,229.2
766.3259,123.4
766.5354,2433.5
766.5746,25319.7
766.6634,1215.9
766.7136,328.2
767.0325,363.8
767.2085,275.8
767.4805,581.8
767.5383,1298.4
767.5781,6571.1
767.6871,64
767.9092,368.7
768.1017,180.3
768.2265,494.2
768.3375,144.5
768.4973,429.1
768.5536,2346.7
768.5908,30961.6
768.7159,585.8
768.7917,186.9
768.9664,109.9
769.346,21.8
769.4772,872.1
769.594,12895.6
769.634,1207.6
770.3891,91.8
770.479,702.7
770.5095,921
770.5371,57
770.5716,1168
770.6076,7623.3
770.6756,700.2
770.9388,808
770.9924,2816.9
771.2946,311.9
771.4945,124.2
771.612,1787.9
771.6441,19.1
771.8606,95.1
772.135,618.4
772.2965,276.5
772.4153,563.9
772.5221,221.1
772.5433,381.8
772.5858,15574.8
772.7543,902.4
772.8831,441.8
773.0644,139.5
773.303,583.7
773.5886,5050
774.3,241.8
774.3668,121.7
774.5471,138
774.6015,2298.8
774.9894,85.4
775.037,565.1
775.0682,262.6
775.3072,649.7
775.3281,96.6
775.382,328.4
775.4136,640.3
775.5123,62.7
775.5343,538.9
775.6075,281.3
775.724,429.3
775.8151,706.2
775.9876,314.3
776.2553,58.6
776.4407,290.3
776.874,593.4
777.0091,2198
777.135,223.6
777.5944,621.2
777.6353,21.7
777.8533,380.8
778.0132,1157.4
778.045,738.3
778.4897,88.1
778.5367,26561.4
778.8338,384.1
779.0422,437.3
779.1513,139.4
779.1839,103.5
779.433,699
779.5396,10516.3
779.5697,659.1
779.608,501.6
779.7509,410.6
779.9484,145.9
780.2954,855.6
780.552,582156.7
780.68,183.1
780.7297,50.7
780.97,110.2
781.0318,19.7
781.2002,165.2
781.4466,330.5
781.5555,264555.9
781.8007,981.4
782.1203,724.8
782.2844,48.2
782.3802,734.1
782.5697,621845.3
782.611,404.2
782.7849,142.2
782.9722,242.5
783.0275,5290.7
783.2908,598.3
783.3539,141.4
783.573,296802.3
783.7279,1586.9
783.7822,630.3
783.7974,327.6
784.3734,1129.1
784.5456,291.7
784.5863,355317.3
785.1834,1567.9
785.3809,17.9
785.5893,180790.1
785.6541,5423.6
785.7472,392.8
785.9107,801.2
786.6019,332640.7
786.6563,1204.9
786.7983,320.9
786.8753,149.4
787.1703,1395.7
787.2264,741.1
787.5469,1824
787.6048,167300.5
787.6701,1658.6
788.1525,917.4
788.18,582.4
788.2062,615.8
788.5567,5519.8
788.6044,25105.6
788.6203,25019.7
788.6737,1458.2
788.731,407.6
788.8552,121.9
789.2168,131.3
789.2234,125.3
789.4823,21.8
789.5331,568.9
789.622,11823.6
790.0312,328.6
790.2997,509
790.3221,267.4
790.5386,1072.2
790.5732,12915.1
790.6222,728.5
791.0558,763.3
791.1373,590.2
791.372,21.4
791.5784,2192.1
791.6323,549.7
792.0611,346.9
792.3664,931.4
792.4639,742.4
792.5591,895.3
792.5905,5865.2
792.945,886.7
792.9801,181.1
793.3547,376.5
793.5963,554.7
794.0341,86.4
794.5104,1867.5
794.569,4180.7
794.6064,26705.6
794.9535,568.9
795.4709,23
795.5161,1058.3
795.5687,762.9
795.6097,10495.1
795.7126,674.9
795.7986,112.2
795.9087,219
795.9691,203.2
796.113,142
796.5259,114270.9
796.5839,1646
796.6235,6666.5
796.7707,181.4
797.0611,76.3
797.5291,48750.3
797.6249,2067.3
797.8157,22.4
797.9189,155.8
797.9996,289.2
798.1084,340.6
798.1441,325.2
798.3433,20
798.4156,108
798.5431,26506.2
798.6029,1546.3
799.0012,389.2
799.4878,501
799.5453,12702.6
799.6016,713.3
799.6403,358.5
799.6687,607.2
799.7288,92.6
800.1408,913.9
800.222,248.7
800.4299,21.2
800.5268,923.6
801.5038,347.3
801.5695,20.1
801.6851,500.3
802.2379,394.6
802.4449,694
802.5365,20727.8
802.6882,271.1
802.7751,370.5
802.8112,103.3
803.0314,547
803.1151,779.6
803.1493,187.8
803.2668,510.3
803.5088,217.6
803.54,6122.8
803.7256,989.4
803.973,841.2
804.1082,2439.3
804.2549,45.2
804.5521,251257.5
804.6273,186.8
804.8183,590.4
805.0062,604.2
805.5553,113757.3
805.6885,1197.1
805.7976,116.2
806.1484,746.9
806.569,235086.6
806.997,198.2
807.2812,164.9
807.5722,114258.8
807.6215,118.3
807.8826,460.3
808.0047,321.4
808.3457,1545.6
808.4142,180.6
808.499,107.7
808.585,201386.2
808.6143,394
808.7065,676.3
809.1658,248.7
809.1874,345
809.588,101472
809.7974,533.9
810.0441,297.9
810.34,729.3
810.4181,736.5
810.6019,138359.7
810.7027,345
810.7535,455.6
810.7954,189.1
810.8665,1981.8
810.9523,430.5
811.0372,50.2
811.3246,428.7
811.5326,324.4
811.6048,67644.4
811.6699,6367.5
811.8745,713.9
811.893,91.3
811.9347,78.2
812.0625,168.2
812.3562,417.2
812.4383,432.8
812.4706,979.2
812.6189,40323.3
812.6734,1908.5
812.7733,22.5
813.1211,711.6
813.3757,1096.7
813.6211,16678.5
813.6856,7682
814.0788,111.3
814.2325,524.7
814.5747,2700.8
814.6236,152.1
814.6888,2464.9
814.8885,254.9
815.021,395
815.1002,564.7
815.3097,548.2
815.3382,54.8
815.4275,876.6
815.4763,21.7
815.7014,68.1
815.953,101.6
816.0499,244.2
816.499,667
816.5299,18.4
816.5888,3096.7
816.6785,358
816.6992,232.6
816.9295,899.8
817.1425,104.6
817.3299,295.6
817.5911,941.2
817.644,398.1
817.8076,45.5
818.0054,839.8
818.1262,654.7
818.2263,808.9
818.3014,102.1
818.392,1141.4
818.4317,867.9
818.6046,533.9
818.6319,451.1
818.7806,128.1
818.9961,389.2
819.0663,125.4
819.3527,130.8
819.4231,560.6
819.4408,46.5
819.7855,1089.7
820.3377,373.8
820.3808,215.5
820.526,50138.3
820.5797,18.5
820.6058,259.6
820.8081,520.9
821.1248,445.8
821.2097,827.2
821.4102,802.8
821.4655,111.6
821.5013,670
821.5292,21243.3
821.7616,114.5
821.7846,203.2
821.8802,215
821.9444,88.4
822.0908,485.9
822.5424,28834.2
822.6411,54.1
822.6703,473.5
822.7148,938.1
822.8723,300.4
822.9684,227.9
823.002,667
823.0929,842.6
823.1052,854.4
823.1935,1581.8
823.3796,50.7
823.5449,12369.2
823.6609,780.4
824.1297,1319.3
824.3918,301.5
824.558,22922.2
824.5997,614.2
824.8316,104
824.9249,504.2
825.034,380
825.0834,992.1
825.0998,776.5
825.4777,1062.3
825.5613,4670.8
825.584,646
825.6717,731.5
825.7758,145.1
825.9301,792.9
826.4438,512.2
826.534,427.8
826.7795,221.4
827.2786,184.3
827.3713,603.4
827.4641,118.6
827.9399,2128.4
828.026,52.7
828.2691,312.9
828.3355,134.5
828.387,597.5
828.5519,44970.6
828.7829,363
828.8972,446.4
828.9936,54.6
829.5554,21749.8
829.6899,619
829.8178,1338
829.8866,21
829.9456,723.8
830.0498,930.3
830.0733,791.3
830.2071,577.5
830.5682,43019.6
830.6076,674.6
830.7239,181.6
830.8448,595.8
830.9481,785.3
830.9736,58.3
831.1603,600.8
831.4604,55.8
831.5711,20986.9
831.7274,732.3
831.9727,855.7
832.1946,741
832.488,160.9
832.5393,1091.2
832.5842,54919.1
833.013,650.8
833.465,2623
833.5276,317.1
833.5875,28037.7
833.6528,152.9
833.8458,1226.8
833.916,802.3
833.9477,208.2
834.0077,810
834.3781,752.5
834.6011,24314
834.8066,18.7
834.8293,793.9
834.8948,70.4
835.1085,940.8
835.1657,135.9
835.5344,255.9
835.6036,8946.2
835.6646,730.4
835.7724,1296.4
835.9763,402.2
836.3355,49.7
836.3802,411
836.4153,511.5
836.4272,532.7
836.4804,1070.8
836.6181,2268.2
836.7343,149.4
836.8179,1272.7
837.0042,907.1
837.0265,1701.4
837.1895,315.2
837.4563,842.6
837.5507,163.9
837.6204,1143.8
837.8673,111.6
838.1696,1345.7
838.5124,2821.3
838.6327,665.1
838.9406,18
839.068,60.8
839.8846,836.7
839.919,1577.8
840.1297,619.4
840.2959,1252.5
840.4809,340.6
840.6415,130.7
840.9278,284.2
840.9748,1251.6
841.0625,1162.7
841.3938,320.5
841.5382,1258.6
841.8318,102.3
841.9471,587.7
842.1147,537.6
842.3489,568.4
842.3684,637.9
842.4277,276.7
842.6163,153.9
842.6449,141.6
843.1245,152.9
843.2305,2201.8
843.3436,182.2
843.6322,456
843.8213,700.2
844.1009,972.4
844.1641,477
844.5274,5419.4
844.8945,655.6
845.0364,84.1
845.0575,200.2
845.138,210.2
845.1999,321.8
845.3847,121.4
845.4884,1220.5
845.5311,1829.7
845.724,87.8
845.9915,1015.4
846.1133,168.6
846.4427,444
846.4981,1353.4
846.5409,5295.5
846.7146,510.7
847.545,899.9
847.6083,952
847.6569,712.6
847.7917,384.5
847.8726,501.9
848.1375,594
848.4103,144.5
848.4367,688
848.539,1924.1
848.5556,3240.4
849.0318,779.5
849.0686,826.4
849.1278,111.7
849.338,693.9
849.559,1927.1
849.8387,173.2
850.1794,807.8
850.293,420.9
850.4025,117.4
850.5917,59.6
851.0341,19.2
851.0641,141.7
851.4433,568.5
851.5623,847.8
851.6468,832.8
851.836,140.4
851.9371,607.1
852.3056,344.2
852.6593,122.8
852.7009,716.1
852.8233,646.1
853.2413,1060.8
853.3862,124
853.4558,137.4
853.6671,959.3
853.7255,777.2
853.9448,180.7
853.9699,1655.7
854.1402,772.8
854.2881,105.8
854.341,1134
854.3544,925
854.4473,95.2
854.5076,94
854.5354,329.3
854.5665,662.1
854.6417,583.2
854.7796,1468
854.9173,487.5
855.0478,482.7
855.1659,809.3
855.2603,22.8
855.767,192.3
855.7933,175.4
855.9786,532.6
856.1949,54.3
856.284,1931
856.4928,91.2
856.5373,1811.9
856.5835,436.6
856.7069,577.7
856.7688,158.3
856.8884,167.3
856.9208,1994.9
856.9949,23.6
857.0616,18.3
857.186,262.7
857.5221,641.4
857.5661,74.3
857.5977,177.8
857.8968,460.1
858.0202,542.2
858.2461,533.6
859.058,268.3
859.4206,564.5
859.5325,272.8
859.5999,1089
859.9005,582.8
860.1222,203.4
860.5062,829.2
860.5672,19.9
860.8079,178.7
860.9169,186.5
861.0316,633.7
861.0601,166.3
861.727,630.2
861.8253,165.1
861.9124,268.7
861.9823,488.6
862.24,119.1
862.3807,2643.7
862.5666,66.4
862.5834,61.3
862.6129,54.7
862.6482,1294.6
862.8906,130.7
863.0656,670.9
863.6212,894.8
863.9806,57.8
864.0834,420.1
864.255,69.3
864.2976,79.4
864.3241,47.5
864.5864,287.7
864.6944,860.3
864.7505,392.2
864.8827,744.5
865.0363,686.5
865.1828,180.1
865.3653,177
865.6396,81
865.793,19.6
865.9655,849.8
866.1683,117.9
866.7301,152.5
867.0335,116.1
867.0949,145.9
867.2572,291
867.5613,687.1
867.6902,20.7
867.7786,1621.5
867.895,56.5
868.0873,147
868.2755,202.2
868.5318,187.1
868.8544,136.5
868.8685,145.9
868.9363,925
869.167,124.2
869.1942,171.1
869.4028,26.4
869.4517,582.5
869.4928,721.1
869.5051,742.8
869.5187,851.4
869.5369,378.3
869.625,2366.8
869.657,3266
869.7398,2570.7
869.7535,2738.7
869.7939,2431.4
869.8162,3581.9
869.867,3616.9
869.8976,2855.6
869.9223,2392.5
869.9458,2787.1
869.9854,555.9
870.0303,402.2
870.0902,121.9
870.9893,1178
871.066,944.3
871.1825,1319.7
872.0778,114
872.5429,708.2
872.6389,780.3
872.8427,756
872.9885,1380.3
873.0438,447.6
873.216,703.5
873.2354,588.2
873.2438,508.1
873.5127,52.5
873.5495,1216.4
873.9546,101.9
874.128,446.6
874.2946,55.9
874.3103,106.3
874.3162,95.7
874.5375,88.8
874.5621,523.9
874.6323,783.7
874.6969,522.6
875.0553,371.4
875.469,20
875.7446,750.4
875.7745,101.3
875.8311,126.2
876.033,650
876.0636,94.6
876.1848,122
876.2092,381.8
876.2425,642.4
876.338,591.9
876.4835,574.3
876.7967,124.5
876.9344,243.6
877.0095,151
877.2835,106.7
877.3753,1832.1
877.7729,2298.4
877.7974,125.9
878.0188,1823.5
878.4455,175.9
878.7333,450.3
878.9272,419.9
879.0821,840.3
879.2501,1182.3
879.4917,184.2
879.6453,1041.9
880.3181,217.2
880.3476,446.8
880.5523,25.2
880.7401,2327.8
880.9169,1232.4
880.9796,127.2
881.1094,117.9
881.299,94.5
881.3333,370
881.3399,368.2
881.8123,1059.3
881.9309,785.5
882.6079,18.7
882.6649,365.1
883.3187,702.1
883.4104,254.9
883.528,576.1
883.6011,607
883.7213,1327.5
883.8038,209.1
883.8649,1787.4
883.9634,474
884.1202,1268.1
884.162,546.7
884.2161,260.5
884.2603,59
884.4679,352.5
884.5528,581
884.6049,387.2
884.808,925
884.8311,601.9
885.0258,855
885.5253,487
885.6105,305.2
885.6241,309.8
885.6955,926.3
885.8184,774.1
885.9959,713.2
886.2606,844.1
886.3359,248
886.3883,1370.1
886.4586,905.7
886.4909,2413.1
886.6787,711.1
886.7686,476
887.1805,531.5
887.4525,24.8
887.8825,821.2
888.0164,933.4
888.4686,402
888.5714,552.5
888.7546,63.8
889.0565,545.4
889.0717,572.8
889.1065,688.5
889.3328,1300.2
889.3926,199.5
889.4296,1263.1
889.5418,1378.9
890.1633,901.8
890.6312,602.8
890.6845,1376.7
890.8027,75.8
891.4753,115.7
891.552,2242.2
892.1204,205.8
893.4328,532.8
893.9866,201.6
894.0821,324.5
894.7015,185.7
894.8496,349.4
894.9085,574.2
895.0024,653.3
895.1599,112.2
895.1763,102.2
895.7935,19.1
895.861,900.3
896.2629,270.5
896.5413,22.3
896.6984,807.5
896.7278,882.5
896.9181,167.4
897.265,21.8
897.3387,855.7
897.3993,19.6
897.628,140.8
897.9888,685.3
898.3528,118.6
898.5495,754.4
898.5696,743
898.589,156.5
898.628,1083.7
898.7574,903.5
898.8166,828.2
898.8335,1573.7
898.9372,389.4
898.9975,1218.4
899.2217,845
899.3334,18.7
899.7656,863.4
899.7931,1692.4
899.8912,1435.1
900.0451,97.4
900.1374,150.7
900.2073,21.7
901.0784,201.9
901.1559,1109.5
901.2867,112.6
901.3535,972
901.3867,130.7
901.4171,782.6
901.4715,186.3
901.6323,2576.8
901.7923,1399.9
901.9129,265.9
902.1143,148.4
902.1601,326.8
902.3069,636.6
902.3929,1864.4
902.4744,583.7
902.4983,518.6
902.5636,188.2
902.9586,845.4
903.2162,1778.6
903.8884,538.2
904.0355,233.3
904.3203,876.4
904.3656,632
904.5628,999.1
904.7106,222
904.8289,1119.8
904.8736,391
905.6391,545.9
905.7326,1642.8
905.8162,1047.6
906.02,82.4
906.5761,722.4
907.5878,755.9
908.028,1214.7
908.355,786.1
908.5316,1076.6
909.2474,161.1
909.4662,725.9
909.6054,60.3
909.6352,271.4
909.8649,690.8
909.9496,1655.7
910.2313,113.1
910.2723,20.4
910.3876,104
910.7694,2742.3
910.9797,1244.7
911.0237,578.4
911.1662,94.1
911.2589,309.1
911.8529,470.4
911.8943,22.8
911.9238,227.2
912.0962,375.9
912.3143,107.2
912.5145,129.6
912.8305,634.3
913.1436,173.2
913.6076,1023.3
913.7821,666.3
913.9091,705.6
914.0591,597.6
914.2418,130.9
914.5881,1157.7
915.4939,701.7
915.5501,1009.5
915.6301,158.9
915.6843,3027.1
915.7802,144
916.0095,138.7
916.6021,53.3
916.664,86
916.9541,640
917.0938,91.2
917.1305,26.5
917.1858,1473.2
917.3303,18.2
917.3455,17.9
917.4797,109.3
917.5912,48.2
917.6876,968.5
918.2813,21.5
918.4301,817.9
918.5913,97.6
918.6855,22.5
918.9643,917.8
919.0525,634.4
919.1212,189
919.1849,638.3
919.2265,562.6
919.3458,1671.4
919.4813,816.6
919.5055,566.3
919.9538,108.3
920.2667,458.7
920.4444,1114
920.6234,22.2
920.9318,462.9
921.0441,530.9
921.2455,127.8
921.3091,164.1
922.0725,1006.4
922.1288,515.6
922.2022,447.5
922.3314,402.9
922.3699,95.4
922.4597,189.7
922.9438,340.7
922.9744,225.3
923.015,574.3
923.1755,1062.5
923.2641,256.3
923.3936,338.3
924.3828,251.9
924.516,312.4
925.129,342.4
925.2934,350.6
925.3468,306.3
925.3739,672.8
925.7266,958.8
925.848,695.8
925.9937,513.8
926.0259,601.6
926.284,615.4
926.3011,727.2
926.7093,656
926.7408,1112.9
926.7756,19
926.8934,1895
927.3408,232.1
927.4332,164.3
927.8715,720.8
927.9071,572.5
928.2382,628.2
928.2647,910.2
928.6816,2010.6
928.8538,977.3
928.954,1159.4
929.2303,120.4
929.5064,1344.1
929.5341,1128.1
929.5865,52.6
929.6562,1483.3
929.7368,79.5
929.7914,1295.4
929.8831,1004.9
930.0977,134.3
930.141,442.8
930.1948,97.2
930.6416,147.3
930.9708,1485.5
931.1233,1639.2
931.1534,202
931.2103,89.2
931.4575,267
931.9936,727.3
932.1162,479.4
932.3588,177
932.3989,326.7
932.7481,25.2
932.7955,741.6
932.8544,702.4
933.07,485
933.3954,197.8
933.4792,910.9
933.5227,1331.9
933.6386,2260.7
933.7372,876.7
933.8962,2196.5
934.4128,23.9
934.4641,629.1
934.5361,1609.9
935.2402,599.2
935.5875,1247.9
935.7387,829.4
935.7986,800.7
935.985,889.8
936.6064,660.9
936.7184,1316.5
937.2586,1417.3
937.5338,555.4
937.6519,203.6
938.1031,608.8
939.0064,18.2
939.1201,1216.9
939.142,971
939.1949,272.6
939.3151,46.9
940.1167,800.6
940.4191,1214.6
940.4518,1557.2
940.6513,750.7
940.6765,100.7
940.9153,51.2
941.1487,637.7
941.2912,949
941.4934,504.3
941.804,102.3
941.9284,407.8
942.1659,193.8
942.3492,714.7
942.6084,594
942.663,147.8
942.8833,186.9
943.3013,20
943.4779,431.8
943.5768,95.7
943.6017,103.4
943.74,567.3
944.2697,195.2
944.3076,366
944.4746,1513
945.1119,162.1
945.2047,115.9
945.2317,584.1
945.3439,24.3
945.4075,802.3
945.6028,2726.9
946.1878,958.9
946.2684,126.4
946.3515,735
946.3866,1443.3
946.4903,531.1
946.7189,165
947.1138,167.9
947.3773,43.4
947.3897,50.1
947.6328,167.1
947.7998,615.7
948.0811,1553.2
948.2259,613.1
948.3999,767
948.5097,661.2
948.606,181
948.6207,184.5
948.7535,1831.3
949.6641,187.2
949.8905,752.8
950.0491,1007.8
950.0949,102.9
950.205,706.8
950.3662,388.7
950.8313,772.3
951.3351,618.4
951.4958,543.7
951.6651,106.5
951.845,780.8
952.2858,706.1
952.483,163.7
952.6223,775.2
952.6537,757.2
952.7569,1312.5
952.9511,898
953.1371,885
953.2411,163
953.2813,928.3
953.3973,831.6
953.5163,21
953.6055,877.9
953.7104,2101.4
953.8159,365.4
953.9309,1737.9
954.5689,493.4
954.9384,2060.7
955.1378,477.6
955.223,192.9
955.5047,571.4
955.5317,330.4
955.58,986.2
955.9481,1492
955.998,99.7
956.0726,980.6
956.2938,572.9
956.3356,501.5
956.4726,2097.3
956.519,162.5
956.6471,399.9
956.7954,589.4
956.9063,950.1
956.9169,787.9
957.0721,506.5
957.3863,175.3
957.7571,702.8
958.0452,953.9
958.1088,263
958.2951,1073.7
958.4159,559.9
958.69,20.5
958.7795,683.4
958.8123,516.8
959.2031,132.5
959.3875,418.7
959.6458,985
959.6614,1059.1
959.7156,1300.1
959.8937,236.4
959.9558,780.7
960.3069,1304.7
960.7114,1199.6
960.8069,234.3
960.8473,260.8
960.9196,223.5
961.1721,23.1
961.2533,143.8
962.3119,522.1
962.326,539.1
962.4698,923.2
963.0586,1084.3
963.1166,282.7
963.6861,954.1
963.7167,754.6
963.8418,191.7
964.3592,620.4
964.5851,822.6
964.7205,657
964.8648,729.1
965.3041,483.9
965.3516,473.7
965.3733,362.7
965.5374,110.8
965.822,739.2
966.0442,1166.1
966.1272,76
966.1599,632.1
966.4395,579.7
966.4769,485.9
966.6319,513.7
966.6949,538.1
966.7283,828.9
966.825,490.3
966.9042,693.9
966.939,1323.2
966.9876,172.6
967.3193,1291.5
967.4828,1432
967.6822,1001.2
967.9746,1233.3
968.0583,742
968.1821,413.7
968.3044,438.3
968.9173,19.6
969.0725,954.4
969.1749,676
969.3342,487.3
969.4724,753
969.5675,537.5
969.6176,276.9
969.8123,22.3
969.9834,1440.2
970.0209,401.1
970.0729,919.7
970.1186,1070.7
970.1825,168.2
970.3053,307.5
970.3616,723.9
970.8006,531.6
971.161,884
971.2163,361.3
971.3733,340.3
971.5304,47
971.6564,621.2
971.7272,721
971.991,117.3
972.2776,1812.5
972.3646,2576.4
972.7374,23.5
972.929,683.6
973.011,552.5
973.5759,284.3
973.8168,1591.1
974.4428,337.5
974.4664,861.8
974.5889,1039
974.6311,98.7
974.7739,1001.8
975.0666,25.7
975.1193,2839.7
975.1872,411.9
975.4096,937.9
975.4739,198.3
975.5739,148.3
976.1574,258.2
976.309,1769.5
977.2506,117.6
977.5161,19.7
977.8782,343.5
978.0725,22.3
978.1795,516.6
978.3596,116.6
978.998,1695.1
979.1912,119.6
979.3674,619.4
979.3939,1211.7
979.6024,806.8
979.6554,170.3
979.8414,96.4
979.9091,57
979.943,687.3
980.0083,135.3
980.292,621.8
981.0862,767.7
981.2841,88.3
981.4655,712.6
981.5818,410.1
981.7465,478.8
982.0281,429.2
982.07,1028.7
982.3178,581.6
982.7918,511.5
982.8254,651.2
983.1738,94.5
983.4693,20.3
983.6915,680.6
983.7527,737.8
983.8526,486.4
984.1052,1513.4
984.2675,679.5
984.4629,250.9
984.4961,1294.3
984.5823,172.4
984.6198,512.8
984.713,679.3
984.9389,648.4
985.063,823.6
985.1256,885.8
985.2665,147.6
985.3157,475.5
985.3232,482.8
985.3418,575.3
985.6217,617
985.7853,613.7
985.826,58.1
986.108,1253.2
986.2048,1247.1
986.4413,928.5
986.5394,2012.8
986.7063,514.9
986.874,779.1
986.9633,1002.8
987.1696,119.4
987.2829,141.5
987.4349,916.6
987.4881,524.3
987.6519,523.9
988.1575,687.9
988.2042,743.7
988.2387,153.1
988.2964,159.2
988.4867,189.8
988.514,1415.2
988.6677,335.5
988.9729,71.2
989.1026,302.7
989.2193,47.3
989.2839,346.6
989.3522,729.5
989.5245,189.6
989.6247,513
989.7041,929.6
989.8743,1761
989.9402,937.5
990.3156,934.3
990.882,238.1
991.0852,411.4
991.1284,547.9
991.196,1205.4
991.3083,109.5
991.3915,1104.4
991.9314,543.9
992.017,54.5
992.0451,1071.9
992.1363,110.9
992.2713,487.3
992.4544,1615.2
992.5369,1904.8
992.7705,780.3
992.8505,394.7
992.943,296.2
993.2155,784.2
993.4096,652.2
993.4605,99.8
993.5951,709.8
993.6421,385.6
993.6525,457.4
993.6665,439
993.8241,840.9
994.0196,985.2
994.0409,906.2
994.2505,338.1
994.4178,1099.3
994.5041,182
994.6695,659.8
994.7689,556.4
994.9244,595.1
995.0817,1313.5
995.441,372.5
995.7095,431.2
995.7325,750.9
995.7545,536.5
995.837,653.2
996.3451,316.7
996.4868,1631.3
996.7826,243.8
996.932,1043.6
996.9852,22.4
997.2014,954.5
997.2787,138.1
997.6419,924.9
998.1576,661.6
998.4003,783.9
998.4375,1275.7
998.6148,21.8
998.765,937.9
998.9129,214.6
999.1766,20.6
999.4459,954.1
999.7913,1045.5
999.8358,526
999.8923,684.6
