SPECTRUM - MS,
34.RAW,
FTMS + p ESI Full ms [50.00-1000.00],
Scan #: 1-40,
RT: 0.01-1.97,
AV: 40,
m/z,Intensity

50.0143,216.9
50.0332,166
50.0489,329.4
50.0876,314.6
50.0892,17.5
50.1012,329.5
50.1051,16.3
50.126,154.3
50.1564,190.3
50.1573,144.9
50.1628,542.4
50.1962,316
50.1965,312.4
50.2006,122.1
50.2138,16.9
50.2266,16.3
50.2283,374.3
50.2391,104
50.2612,18.6
50.2714,120.6
50.277,692.1
50.2786,145.3
50.2994,16.7
50.305,14.9
50.3086,350.2
50.316,137.8
50.3485,295.9
50.3642,583.2
50.368,125.8
50.3685,270.5
50.3711,184.6
50.3878,211.6
50.3909,252.6
50.3958,752.6
50.407,173.6
50.4165,17.1
50.4469,158.3
50.4492,214.4
50.4567,313.7
50.4611,830.2
50.4728,260
50.4753,162.7
50.4983,170.6
50.5034,184.9
50.5403,14.9
50.5618,806.8
50.5933,17.1
50.5975,167.6
50.6089,110.9
50.626,293.9
50.6425,387.3
50.6627,557.2
50.6688,204.3
50.6745,162.1
50.6755,99.2
50.677,18.1
50.6924,102.8
50.7031,831.6
50.7175,194.4
50.7217,279.9
50.7281,123.5
50.7529,729.6
50.7576,249.9
50.7612,262.3
50.84,898.8
50.8642,130.8
50.8644,134.8
50.8726,309.9
50.8836,952.2
50.885,522.8
50.8939,295.3
50.9141,137.4
50.9471,144.9
50.961,200.3
50.9784,17.8
50.9982,17.8
51.0378,518.7
51.0449,175.1
51.0477,877.6
51.0503,198.1
51.0562,298.5
51.0707,16.6
51.071,735.3
51.0967,183
51.1146,159
51.1192,557.2
51.1262,166
51.1321,270.8
51.1364,99.3
51.1415,782
51.1596,726.7
51.1668,17.2
51.2062,278.8
51.2085,140.4
51.2099,169.1
51.2136,115.5
51.2278,229.8
51.2453,819.5
51.3012,872.2
51.3209,551.8
51.3273,139.5
51.3293,400.9
51.3357,16.1
51.3422,178.4
51.3465,522.1
51.3717,262.7
51.3854,194.1
51.3889,408.8
51.3904,18.5
51.3956,275.8
51.4097,101.9
51.4119,17.5
51.4237,389.3
51.4281,15.5
51.4396,259.6
51.449,728.7
51.4528,242
51.4541,16.9
51.4569,264.2
51.4616,132.4
51.4624,129.6
51.4744,498.2
51.477,148.8
51.4831,603.9
51.5026,209.7
51.5033,731.4
51.5107,206.1
51.5114,379.1
51.5205,17.3
51.5274,383.8
51.5297,366.3
51.5479,694.6
51.5557,264.4
51.5768,247.2
51.5907,128.5
51.5924,148.5
51.6018,484.4
51.6067,497.4
51.6126,286
51.6128,303
51.6229,252.2
51.6377,976.9
51.6396,193.8
51.6487,402.8
51.6686,17.4
51.7006,94.4
51.7113,17.4
51.7166,280.9
51.7333,545.3
51.7342,823.7
51.7471,16.4
51.7483,281
51.789,852.9
51.807,519.1
51.8134,479.8
51.8158,321.5
51.8273,349.5
51.8339,287.7
51.8616,19.9
51.9061,795
51.9072,135.7
51.9112,160.2
51.9168,519.7
51.9308,241.6
51.943,214.1
51.9463,469.9
51.9549,331.1
51.9638,165.9
51.9659,158.4
51.9712,179.8
51.9814,766.5
51.9845,101.7
51.9848,147.3
51.9871,311.8
51.9894,145.4
52.0245,352.8
52.0341,480.2
52.0461,166.1
52.0498,304.1
52.0509,696.9
52.0599,322.3
52.0611,16.9
52.066,185.5
52.067,103.6
52.0767,127.5
52.0945,224.5
52.1023,289.1
52.1083,150
52.1284,121.8
52.1317,256.2
52.1459,118.4
52.1487,138.7
52.1829,114.3
52.1868,239.2
52.1943,16.2
52.2011,371.7
52.2033,267.3
52.2057,333.3
52.2137,150.4
52.2182,156.9
52.2186,15.9
52.2307,501
52.2445,19.6
52.2585,262.2
52.28,454.8
52.3042,16.9
52.3183,17.5
52.3301,154.8
52.3452,159.4
52.3458,17.7
52.3627,620.2
52.3733,110.9
52.3849,588.4
52.4421,276.4
52.4458,175.8
52.4579,176.3
52.4664,716.8
52.4687,17.6
52.516,241
52.5272,16.7
52.5376,707
52.5422,470.3
52.5446,111.4
52.5451,384.5
52.5674,18.6
52.5734,247.4
52.5746,187.9
52.5775,279.3
52.5797,19.2
52.5824,558.8
52.5831,16.6
52.5918,16
52.6037,283.1
52.6074,162.2
52.6152,760
52.6482,138.6
52.655,143
52.657,123.9
52.6578,177.5
52.6758,29.9
52.6761,620.4
52.68,712.9
52.7289,301.6
52.7348,153.8
52.7382,465.4
52.7405,563.5
52.7455,780.7
52.7713,20
52.7788,475.8
52.7827,574.3
52.784,260.1
52.8025,18.9
52.8055,650.4
52.8204,154.7
52.8304,231.6
52.8308,253.2
52.8318,1341.3
52.8321,495
52.8343,674.7
52.8348,322.6
52.8357,2300.9
52.8608,152.6
52.8723,211.3
52.8801,421.3
52.8821,116.9
52.8825,699
52.9062,198
52.9161,166.4
52.9412,588.1
52.9608,498.3
52.9625,321.3
52.9664,625.5
52.9725,18.5
52.9794,14.6
52.9831,258.5
53.0009,264.6
53.0146,257.9
53.0457,101.8
53.0536,165
53.0625,16.3
53.0667,640.9
53.0763,19.9
53.0782,128.6
53.0789,783.6
53.082,17.1
53.0856,701.6
53.0874,454.2
53.092,291.3
53.1075,493.2
53.1274,123.8
53.1292,131.7
53.1501,706
53.1775,391.3
53.1803,692.5
53.1936,259
53.196,487
53.2198,572.9
53.2322,705.9
53.2384,16.4
53.2519,120.9
53.2537,111.4
53.2937,143.5
53.2967,160.9
53.3038,266.8
53.3252,169.7
53.3287,246.6
53.3296,191.3
53.3434,17.5
53.3444,117.7
53.3452,300.8
53.3503,16
53.3533,18.7
53.36,98.3
53.3622,343.9
53.364,211.2
53.3794,192.8
53.4066,273.8
53.4146,220.3
53.4283,265.4
53.4298,167
53.4473,579.6
53.4505,169.2
53.4637,226.8
53.4681,237
53.483,556.3
53.4954,90.7
53.5038,293.1
53.526,157.2
53.536,249
53.5838,132.1
53.5852,167.8
53.6004,16.4
53.6111,505
53.6132,18.6
53.6432,170.1
53.6593,299
53.6663,15.8
53.6768,150.2
53.6862,203.7
53.6988,379.4
53.7013,249.3
53.7017,263.5
53.7093,21.8
53.7132,124.2
53.7175,408.8
53.7218,16.8
53.7223,611.4
53.7618,190.3
53.7785,781.8
53.7865,758.2
53.7878,414.8
53.7897,198.6
53.7948,817.5
53.7993,497.3
53.8098,479.9
53.8166,104.8
53.8324,152.2
53.8375,269
53.84,266.6
53.8478,352.2
53.8487,293.3
53.8514,161.1
53.8611,106.7
53.9018,106
53.9546,294
53.9676,180.8
53.9812,209.3
54.0032,150
54.0237,521.2
54.0258,110.9
54.0487,811.6
54.0609,690.2
54.0929,119.1
54.0948,215.6
54.0999,660.5
54.1015,698.2
54.1219,202.2
54.146,16.2
54.1471,153.8
54.1585,15.7
54.1657,482.2
54.1796,32.8
54.2054,520.4
54.2103,22.4
54.2127,170.7
54.2147,327.6
54.2239,14.2
54.2331,248.1
54.2382,522.9
54.2419,422.7
54.262,115
54.265,23.4
54.286,25.3
54.2963,273
54.2971,153.9
54.3161,584.6
54.3458,172.5
54.3514,97.9
54.354,209.3
54.3611,298.5
54.3632,203.6
54.366,193.1
54.3711,99.8
54.3718,17.2
54.3759,186.2
54.4037,126.4
54.407,19.4
54.4126,583.9
54.4247,190.8
54.4258,477.8
54.4297,162.3
54.4304,483.9
54.452,528.6
54.4604,252.2
54.4636,875.5
54.468,186.6
54.47,212.3
54.477,115.9
54.4846,160.4
54.4975,252.2
54.4993,621.9
54.5071,815.3
54.5088,16
54.514,256.2
54.5328,579.7
54.5545,701.4
54.5554,303.3
54.56,100
54.5729,289.4
54.5808,179.4
54.5942,116.9
54.5956,161.4
54.6352,298.5
54.676,93.9
54.6778,15.8
54.6908,168.5
54.6993,499.1
54.6998,325.9
54.7007,264
54.7123,836.9
54.723,16.3
54.7531,153.2
54.7778,359.2
54.782,174.1
54.7982,743
54.8119,775.8
54.8131,152
54.8141,513.2
54.8166,303.6
54.8263,133.6
54.8295,473.9
54.831,455.7
54.8387,18.4
54.8391,331
54.8477,419.5
54.8713,18.7
54.9009,734
54.9072,297.2
54.9103,154.7
54.9202,719.7
54.9291,16.3
54.9296,1040
54.939,97.3
54.9483,17.5
54.9619,805.8
54.9899,17.5
54.9905,469.9
55.0038,152.7
55.0213,292.7
55.0224,180.5
55.0403,178.9
55.0448,111.4
55.0828,418
55.1158,537.3
55.1539,259.7
55.1658,105.9
55.179,482.4
55.2002,127.1
55.2074,20.1
55.2154,186.7
55.2398,289.3
55.2442,482.2
55.2913,264.7
55.3029,741.1
55.3117,295
55.3141,648.7
55.3361,144.4
55.3378,201.4
55.3386,31.5
55.3565,16.2
55.3615,504.2
55.3704,15.8
55.3782,153.8
55.3851,133.4
55.3865,111.4
55.3871,779.9
55.3904,591.5
55.4194,193.5
55.4392,16.3
55.4451,144.9
55.4466,21
55.447,258.5
55.4479,99.8
55.4528,142.1
55.4686,261.5
55.4701,178.1
55.4891,552.8
55.4961,247.3
55.5007,634.1
55.5046,16.2
55.514,16.9
55.52,745.3
55.5471,16.4
55.548,448.2
55.5785,158
55.6193,296.8
55.6245,16.6
55.6583,534.3
55.6652,448.8
55.6831,18.1
55.6958,16.5
55.7038,183.7
55.7053,16.9
55.7142,124.4
55.7352,15.8
55.7419,403.2
55.751,517.6
55.752,238.7
55.7545,152.7
55.7606,178.1
55.7968,156
55.8186,140.8
55.8203,263.7
55.842,551.1
55.8464,169.3
55.8503,196.7
55.8546,25.2
55.8596,166
55.9046,176.6
55.9077,17.6
55.9152,115.8
55.9182,107.2
55.9441,136
55.9483,280.7
55.9487,580
55.9756,148.8
55.9858,171.8
56.0053,92.3
56.0099,373.7
56.0148,466.7
56.0185,102.1
56.0646,158.1
56.0823,446
56.085,165.9
56.0854,135.1
56.1054,18.8
56.1171,170.5
56.1793,269.9
56.1813,258.4
56.1846,312.5
56.1864,262.1
56.1951,567.6
56.1999,151.7
56.2085,16.5
56.2317,479.1
56.2486,307.6
56.2685,148.5
56.2757,388.7
56.2991,329.1
56.3013,270.1
56.3048,147.4
56.3179,17.4
56.3188,894.8
56.3222,735.5
56.3358,268.1
56.3733,137.5
56.3786,664
56.3836,148.9
56.4082,394.1
56.4114,343.3
56.4135,96.2
56.4174,17.3
56.4299,523
56.4588,110.4
56.4618,946.6
56.4628,352.7
56.4662,305.8
56.4734,26.8
56.4739,177.5
56.4877,698.9
56.5138,234.4
56.5186,128.8
56.6062,129.6
56.6132,499.4
56.6438,150.8
56.6613,211.4
56.6697,17.1
56.6812,174.9
56.6982,16.7
56.7275,543.1
56.7292,99.4
56.7814,170.7
56.7915,182.6
56.8563,153
56.86,519.8
56.8716,372.5
56.8754,17.8
56.8804,444.6
56.8906,308.6
56.8996,404.2
56.9476,300.6
56.9541,377.9
56.9693,283.3
56.9741,582
57.0189,130.4
57.0244,141.1
57.0253,472.7
57.037,436.2
57.0437,159.2
57.0495,198.2
57.0543,174
57.0725,315.5
57.0839,18.1
57.0888,248.6
57.0957,106
57.0977,139.9
57.111,144.6
57.1145,130.5
57.1363,380
57.1457,609.2
57.1542,579
57.1585,271.9
57.1626,290.9
57.1805,136.4
57.1817,750.2
57.1908,168.5
57.202,134.4
57.2142,17.9
57.2173,167.2
57.2397,16.4
57.2427,224.8
57.255,161.6
57.2621,15.7
57.2778,254.1
57.2956,172.2
57.309,163.8
57.3415,519.4
57.3484,98.8
57.3937,100.7
57.3994,27.5
57.4274,17.2
57.4285,360.7
57.4368,108.1
57.4505,113.3
57.4567,522.5
57.4688,562.9
57.4959,109.6
57.5061,144.7
57.5093,240.1
57.5215,215.3
57.5334,540.8
57.5343,183.6
57.5547,184.5
57.5606,714.7
57.5708,363.2
57.5803,498.5
57.6047,113.5
57.6132,179.5
57.6267,25
57.6293,418.9
57.6358,143.1
57.6372,327.6
57.6427,657.9
57.6443,522.1
57.6559,18.9
57.6587,146.2
57.6793,16.8
57.7026,515.4
57.7168,200.2
57.7207,493
57.7262,407.6
57.7342,136.8
57.7381,192.8
57.7507,113.7
57.765,303.1
57.7742,17.9
57.7811,767.3
57.8105,499.9
57.8142,339.2
57.8193,250.2
57.8239,122.3
57.8408,377.5
57.842,234.7
57.8538,16.9
57.856,16.4
57.8578,279.3
57.9035,126.7
57.9056,331.4
57.907,344.2
57.9275,314.2
57.9342,279.9
57.9405,120.3
57.9675,111.7
57.9766,16.3
57.9784,541.6
57.9791,183.9
57.999,259.6
58.0098,913.3
58.0115,198.4
58.0133,252
58.0173,416.7
58.0611,878
58.0991,169.9
58.1035,163.8
58.1116,17.2
58.1258,315
58.1322,180.2
58.1521,358.8
58.1772,712.7
58.2144,16.5
58.2267,139.9
58.248,868.4
58.2825,120.6
58.2864,189.7
58.305,17.2
58.3062,16.4
58.3148,126.7
58.3208,583.2
58.3449,817.8
58.3557,173.3
58.3694,17.9
58.377,189.8
58.3811,324.6
58.3823,289.7
58.3963,140.1
58.409,18.2
58.4292,144.2
58.4537,800.3
58.4654,145.5
58.4915,17.3
58.494,538.3
58.5311,490.7
58.535,236
58.5529,176.6
58.5544,158.2
58.5584,177.2
58.5617,289.5
58.5737,205
58.5819,271.1
58.6052,104.5
58.6071,16.8
58.6106,477.6
58.612,167.1
58.6471,406.4
58.6583,214.3
58.6605,451.4
58.6701,559.8
58.6892,297.2
58.6898,545.1
58.7132,251.1
58.716,141.7
58.7201,267.3
58.7348,354.1
58.763,19.9
58.7689,387.3
58.7845,296.4
58.7858,140.3
58.8132,169.9
58.8214,625.6
58.8365,740.8
58.8384,166.9
58.8455,245.3
58.8532,300.8
58.8626,418.7
58.8636,400.1
58.8683,17.5
58.885,150.7
58.8956,190.3
58.9024,125.2
58.938,744
58.9575,121.8
58.9587,172.4
58.9795,196.7
59.0189,509.6
59.0197,19.8
59.0634,119.6
59.0949,835.5
59.1086,446.1
59.1164,338.8
59.1234,208.4
59.1286,467.7
59.1317,335.9
59.1353,867.2
59.1517,495.2
59.1665,384.2
59.1725,248.7
59.1799,297.8
59.182,257.6
59.1873,292.4
59.2058,212.2
59.2214,694
59.2363,164.6
59.2374,333.4
59.2495,273.6
59.2759,631.4
59.3026,314.2
59.3286,148.8
59.3467,123.8
59.3573,267.4
59.3767,19.3
59.3819,263.6
59.3872,351.8
59.4142,485.8
59.4293,716.2
59.4523,659.5
59.4539,249.7
59.4544,114.7
59.4631,170
59.4921,947.3
59.507,350.3
59.5172,830.8
59.5206,116.5
59.5355,708.8
59.5532,448.4
59.559,192.1
59.5617,467.6
59.5649,18.8
59.5681,272.9
59.5776,412.5
59.6174,15.3
59.6332,320.4
59.6382,289.6
59.6782,299.9
59.683,188.2
59.6842,28.7
59.6968,197.3
59.7087,129.4
59.7115,25
59.7121,726
59.721,685.3
59.7279,152.3
59.7405,207.3
59.7593,232.7
59.7649,318.9
59.7817,483.7
59.7874,172.8
59.7966,119.1
59.7991,337.8
59.8352,603.5
59.8391,209.3
59.8443,846.9
59.8742,30.3
59.8806,615.5
59.8897,188.1
59.8904,25.4
59.8949,16.1
59.9062,947.5
59.9236,142.6
59.9547,514.9
59.9733,545.9
59.9857,216.1
60.007,142.9
60.0245,146.9
60.0387,578.2
60.0541,511.6
60.0603,718.6
60.0647,482.8
60.0668,151.5
60.0775,566.2
60.0827,496.3
60.1158,143.6
60.1361,485.4
60.1564,193.4
60.1604,508.1
60.1948,108.9
60.1958,16.1
60.2079,386.8
60.21,34.2
60.2307,189.9
60.2356,381.7
60.2463,198
60.2472,276
60.2546,828.5
60.275,842.5
60.29,152.3
60.2957,331.6
60.3053,16.5
60.3104,104.1
60.3233,524.9
60.3328,551.3
60.3452,165.6
60.3522,439.1
60.3831,190.7
60.3996,292.9
60.4093,155
60.4495,526.4
60.4663,183.8
60.4753,583.2
60.4825,377.1
60.5108,657
60.533,452.8
60.5526,106.2
60.5578,468
60.5888,123.8
60.5917,126.3
60.6002,454.2
60.6465,203.4
60.6476,426.9
60.6788,15.4
60.6804,192.5
60.6846,157.8
60.687,186.6
60.7343,286.7
60.7723,241.3
60.7749,541.6
60.7767,276.6
60.7906,687.3
60.8352,523.3
60.8519,572
60.8556,263.7
60.8843,19.6
60.8947,148.4
60.8952,301.5
60.9021,103.2
60.9073,222.6
60.9465,305.5
60.9466,301.9
60.952,17
61.0088,16.6
61.0116,20.1
61.0207,121.2
61.0351,534.5
61.0512,166.2
61.0583,187.1
61.0668,406.6
61.0778,208.9
61.0801,643.4
61.0931,514.2
61.0968,489.3
61.1108,145.6
61.1166,15.8
61.1181,705
61.1209,320.8
61.1242,894.5
61.1381,29.7
61.141,568.5
61.1456,32.1
61.164,417.1
61.1806,172.7
61.1914,186.2
61.1935,379.6
61.1954,425.2
61.2089,18.1
61.2152,259.1
61.2175,295.2
61.2197,642.4
61.2424,257.7
61.2456,271
61.2508,195.2
61.2606,368.7
61.2628,277.1
61.2811,166.4
61.3039,551.7
61.3174,448.5
61.3448,19.5
61.3453,192.2
61.3777,588.5
61.3793,18.7
61.3948,787.5
61.4292,817.8
61.4341,187.8
61.4365,196.9
61.4454,320.6
61.4526,843.6
61.4607,195.3
61.4618,170.1
61.4624,244.4
61.4889,16.9
61.5117,114.9
61.5279,204.3
61.5372,468.3
61.5524,272.5
61.5688,719
61.5866,859
61.5917,934
61.61,466.8
61.6126,198.2
61.6268,432.6
61.649,872.7
61.6676,149.3
61.6984,522.7
61.708,178.8
61.7156,169.1
61.7179,122.8
61.7237,631.5
61.7332,168.8
61.7374,486.1
61.7506,27
61.7856,489.5
61.8144,24
61.8454,153.1
61.8566,97.5
61.9016,16.7
61.9104,117.1
61.9124,301.6
61.9466,101.9
61.9492,364.5
61.9528,21.3
61.9653,176.5
61.9679,18.5
61.9731,559.4
61.9797,18.4
61.9856,388.6
62.0062,442.7
62.0253,699.1
62.0356,253
62.0404,16.1
62.0452,103.2
62.049,259.8
62.0747,17.6
62.0903,372.9
62.0997,159.5
62.1121,522.9
62.1125,271.7
62.1369,271.7
62.1628,17.6
62.1896,194.1
62.1965,490.9
62.2031,279.5
62.204,332.9
62.2044,173.7
62.2053,374.6
62.2104,172.5
62.2112,412.2
62.2192,261.5
62.2907,515.1
62.2972,784.3
62.2978,121.7
62.3096,1077.5
62.3129,871.6
62.3228,534.1
62.3243,305.1
62.404,136.3
62.4164,129.4
62.4187,16.6
62.4667,137.1
62.4683,415.2
62.4817,111.3
62.492,155.6
62.4976,154.6
62.5014,722.9
62.5156,365.8
62.5374,18.1
62.5398,176.9
62.5533,165.6
62.5543,199
62.5584,17.7
62.5608,516.2
62.5832,157.3
62.5922,797.7
62.5944,182.1
62.6011,123.9
62.6446,253.2
62.6491,160.1
62.6529,519.6
62.6549,324.3
62.6561,856.6
62.6801,441.7
62.7251,343.6
62.7569,18.2
62.7735,111.1
62.7757,274.6
62.7795,319.4
62.7808,316.9
62.8057,240.2
62.8177,190.2
62.8282,325
62.8522,748.5
62.8607,20.9
62.8618,151
62.8721,19.2
62.8738,179.6
62.8878,20.9
62.8969,486.5
62.9037,101
62.9374,19.8
62.9402,407.8
62.9762,192.3
62.982,482.4
63.0044,162.1
63.0068,213.4
63.0463,200
63.0582,509.6
63.062,458.4
63.0641,19.1
63.0649,19.3
63.0738,120.1
63.0814,422.1
63.092,161.1
63.0948,163.6
63.0981,164.3
63.1011,285.6
63.1421,530.3
63.1463,141.1
63.1473,325.3
63.1523,273.2
63.1756,424.5
63.1828,217.8
63.1911,355.6
63.2002,217.4
63.2245,299.7
63.2392,15.6
63.2425,166.6
63.2479,155.4
63.257,130.6
63.2714,419.8
63.2719,830.1
63.2731,298.1
63.2754,147.1
63.2875,378.5
63.3084,131.2
63.3148,131.3
63.3598,273.1
63.401,176.1
63.4015,303.6
63.4149,416.9
63.4425,154.8
63.4501,701.3
63.479,350.3
63.4973,264.7
63.5353,291.2
63.5445,161.2
63.5466,690.9
63.5886,468.3
63.5969,17.9
63.6268,133.3
63.6526,317.9
63.6594,142.7
63.665,195.5
63.6678,366
63.6721,304
63.6833,230.1
63.6854,310.4
63.6898,241
63.6963,225.6
63.6993,196.5
63.7019,338.7
63.7453,112.7
63.7644,516.1
63.7724,160.3
63.7887,308.6
63.7907,131
63.7943,1081.7
63.7965,126.4
63.8001,192.7
63.8142,210.9
63.819,131.8
63.8238,119.7
63.8391,117.9
63.8509,166.5
63.8555,18.8
63.858,578.9
63.8751,170.7
63.8793,236.5
63.8828,364.3
63.8851,168.2
63.9025,282.7
63.9035,505.2
63.9178,225.9
63.9218,202.7
63.9314,273.3
63.967,125
63.9791,755.1
63.9987,15.7
64.0161,108
64.0178,220.3
64.0398,510.2
64.0413,143.2
64.0542,556.8
64.0751,20.3
64.0911,132.9
64.0999,165.6
64.1172,171
64.1472,356.2
64.1492,871
64.1607,154.2
64.1695,347
64.1696,545
64.1698,482.5
64.1717,156.5
64.173,392.9
64.1817,181.3
64.189,260.6
64.1937,288.7
64.201,304.1
64.2173,642.3
64.2239,146
64.2854,320.9
64.3029,16.6
64.3238,669.6
64.3353,19.1
64.3456,16.3
64.3526,17.9
64.362,19
64.3788,227.2
64.4184,518
64.435,370.7
64.4425,504.7
64.4671,682.5
64.4707,514.2
64.4724,168.6
64.4826,163.6
64.4862,143.7
64.4906,233.3
64.5015,153.8
64.5045,119.1
64.53,727.7
64.5478,20.8
64.5512,15.6
64.5554,120.7
64.562,106.2
64.5795,16.5
64.5965,194.5
64.6175,489.3
64.6253,160.8
64.6662,503
64.6669,143
64.6679,150.5
64.6838,108.6
64.6842,145
64.6845,306.2
64.6846,298.5
64.692,267.7
64.695,16.4
64.7013,162.8
64.7042,107
64.7139,260.4
64.727,339.4
64.7319,760.8
64.7329,124.8
64.743,548.2
64.7474,307.4
64.7899,695
64.7966,321.2
64.8133,317.3
64.8206,288.6
64.8246,336.6
64.8302,99.3
64.8667,655
64.8707,613.7
64.8729,866.4
64.8781,831.4
64.8827,148.3
64.8845,145.9
64.8908,656.2
64.8925,256.7
64.9275,191
64.9528,164.9
64.9602,626.8
64.971,19.2
65.0161,19.2
65.0244,176.4
65.0632,206.3
65.0765,166.7
65.0788,278.9
65.1376,17.4
65.1391,806.9
65.1517,18.2
65.155,401.5
65.1688,186.4
65.1765,165.7
65.1775,499.8
65.2261,18.4
65.2783,346.9
65.2855,192.4
65.3136,103
65.3259,27.8
65.3328,123.2
65.3771,271.8
65.3779,321.2
65.4037,628.8
65.4072,446.7
65.4183,326.1
65.4359,659
65.4543,17.4
65.4631,18.8
65.469,255.8
65.475,296.1
65.486,144.6
65.5246,401.8
65.5449,191.1
65.5474,109.9
65.5499,263.6
65.5513,133.6
65.561,297.4
65.5771,181.5
65.5801,737.3
65.5844,294.9
65.5998,283
65.6134,164.4
65.6234,673.4
65.6258,247.1
65.6413,290
65.6416,181.9
65.6473,109.3
65.6527,623.4
65.6703,839.1
65.6968,20.2
65.7013,586.1
65.7021,532.4
65.7037,497.8
65.7043,568.4
65.705,170
65.707,19.4
65.717,109.2
65.7415,18.6
65.7477,291.7
65.7482,989
65.7575,570.6
65.7598,146.7
65.762,142.5
65.7688,163.7
65.7732,19.9
65.7776,139.2
65.7799,163.2
65.8142,121.3
65.8149,17.1
65.8242,161.8
65.8263,188.6
65.8392,111.3
65.8413,388.8
65.8451,297.8
65.8471,103.1
65.8511,17.6
65.8561,355.2
65.8808,168
65.9585,305.1
65.9611,100.1
65.9688,180.1
65.97,90
65.9725,711.6
65.987,430.5
65.9872,466.5
66.0072,475.8
66.0124,308.2
66.0165,198.6
66.0181,20.6
66.0321,274.2
66.0384,806.2
66.0411,22.4
66.0748,414.2
66.1245,254.7
66.13,126.6
66.1315,237.2
66.1429,16.8
66.1607,158
66.1716,129.4
66.178,365.3
66.189,18.9
66.1943,260.8
66.2129,201.6
66.2149,232
66.2355,324.9
66.2367,129.3
66.2384,827.9
66.2909,210.8
66.322,212.4
66.3654,231.1
66.3732,213.8
66.3792,198
66.4038,536.7
66.4178,503
66.4217,410.8
66.4312,266.7
66.437,632
66.4383,281.5
66.4572,592.4
66.4594,570.5
66.4816,174.5
66.4945,268.1
66.5093,301.7
66.5135,22
66.5216,333.2
66.5234,320.3
66.5271,288.5
66.53,367.7
66.5646,17.6
66.5675,648.3
66.5928,18.8
66.5994,225.3
66.6243,16.7
66.6266,357.6
66.6322,16.3
66.6596,16.9
66.7399,210.9
66.7789,217.8
66.7795,121.4
66.7814,133.2
66.8357,897.7
66.8571,270
66.8681,298.8
66.8753,489.3
66.8865,547.1
66.9017,140.6
66.9386,25.9
66.9434,288.5
66.9454,154.2
66.9468,109.2
66.9542,328.6
66.9551,389.6
66.9622,252.6
66.9825,106.8
67.0002,210.6
67.0438,232.2
67.0539,112.5
67.0606,161.8
67.0622,400.2
67.0667,144.8
67.0895,17.5
67.1008,16.9
67.1041,117
67.1212,294.8
67.1332,100.9
67.1452,561.2
67.2007,791.5
67.2362,533.4
67.2766,19.7
67.2787,20.6
67.2796,319.5
67.285,196.7
67.2943,27.6
67.3055,768.7
67.3147,231.2
67.3358,697.2
67.3384,164
67.3415,132
67.3574,592.2
67.3599,602.9
67.3638,250.1
67.3746,119.9
67.3748,147.2
67.3933,160
67.4461,144.8
67.4477,872.9
67.5595,334.8
67.573,424.2
67.5736,133.2
67.6002,188.6
67.616,23.1
67.6301,183.5
67.6386,123.6
67.6544,233.9
67.6551,258.6
67.6619,130
67.6667,232.9
67.7098,18.4
67.7113,543.9
67.7343,302.7
67.7367,98.1
67.8173,136.8
67.8246,296.6
67.8253,211.7
67.8726,162.5
67.8738,156.9
67.8772,645.1
67.907,288.3
67.9152,509.8
67.9216,371.2
67.9232,288.4
67.9293,144
67.9325,396.1
67.9372,280.6
67.9405,170.8
67.9456,520.5
67.9583,737.7
67.9714,364.9
67.9826,185.1
68.0153,430.8
68.0404,703.9
68.0422,540.7
68.0433,144.9
68.0491,427.5
68.0522,211.4
68.0598,395.7
68.0695,671.1
68.0972,209.6
68.1353,123.9
68.146,267.1
68.1632,555.2
68.1728,97.9
68.1906,149
68.2052,299.9
68.2143,827.8
68.2313,119.7
68.2391,128.1
68.2623,19.1
68.2676,508.1
68.3204,224.8
68.321,571.5
68.3337,28.1
68.357,372.2
68.3951,424
68.4091,155.1
68.41,497.8
68.4548,347
68.5155,17.2
68.5221,162.7
68.5252,20.8
68.5294,160.5
68.5369,17.8
68.5392,226.2
68.546,166.6
68.5754,495.2
68.6094,740.6
68.6135,146.2
68.6177,136.1
68.6238,193.5
68.6423,513.5
68.6556,247.9
68.6566,17.9
68.6649,422.5
68.6692,173
68.6837,135.4
68.6866,111
68.7123,176.1
68.7296,157.4
68.7488,21
68.7515,124.6
68.7536,453.6
68.7561,464.8
68.7851,125.3
68.7867,190.9
68.7919,259.8
68.8057,535.1
68.8223,227.5
68.8314,349.1
68.8409,16.5
68.847,190.6
68.877,271.3
68.8984,196.5
68.9,17.5
68.9365,172
68.9398,230.8
68.9586,811.6
68.9617,17.8
68.9695,507.7
68.9785,538
68.9888,19.6
68.9991,416.8
69.012,16.7
69.0303,833.1
69.0425,356.8
69.0658,326.6
69.0768,564
69.1012,304.6
69.1048,18.9
69.1297,572.7
69.1472,230.8
69.1642,809.3
69.1839,585.2
69.1843,576.1
69.1901,191.7
69.1935,262.3
69.1974,16.2
69.205,191.2
69.2189,205.9
69.235,167.3
69.242,131.7
69.2649,771.9
69.2729,539.7
69.2735,271.6
69.2979,273.3
69.3033,180.1
69.3072,290.5
69.3237,19.4
69.3367,242.1
69.3619,182.9
69.3667,239.1
69.3682,457.2
69.3883,447.1
69.3937,109.3
69.3949,181.9
69.4069,115.5
69.4207,105.1
69.4292,578
69.4352,18.5
69.4634,148.5
69.4661,129.9
69.5227,17.6
69.5259,18.2
69.5282,22.9
69.5295,385.2
69.5341,186.4
69.5398,261.8
69.5592,299.4
69.5607,473.4
69.563,159.9
69.5848,168.4
69.6095,166.4
69.6314,667.6
69.6324,369.7
69.6358,379.8
69.6405,108.4
69.6587,595.4
69.6849,16.6
69.6977,16.2
69.7043,575.2
69.7341,128.1
69.7379,18.3
69.7769,178.3
69.7864,228.9
69.8038,19.8
69.8189,185.9
69.8265,121.8
69.8393,257.6
69.8928,18.4
69.8977,21.6
69.9273,303.7
69.9528,579
69.9627,238.5
69.9735,888.2
69.974,120
69.9829,19.1
69.9861,221.1
69.9958,18.7
70.0148,15.6
70.0314,275
70.0648,434.4
70.0906,364.9
70.1008,16.9
70.1063,755.2
70.1183,303.7
70.1392,169.4
70.1475,318.1
70.1492,375.9
70.1815,126.3
70.1946,547.4
70.2342,313.8
70.2376,540.1
70.2489,202.6
70.2613,256.2
70.2747,154.5
70.2778,817.6
70.2948,165.8
70.3246,206.1
70.3268,264.6
70.3525,247.2
70.3548,193.8
70.3604,185.8
70.369,129.8
70.3756,836.2
70.3969,105.2
70.3998,208.1
70.4031,206.7
70.4037,117.1
70.4234,368.1
70.4357,127.2
70.4613,496.6
70.4667,700.4
70.4821,173.8
70.495,359.9
70.5177,147.8
70.5238,566.6
70.5269,16.1
70.5303,137.5
70.5545,613.8
70.568,553.9
70.6053,125.2
70.6311,16.5
70.6341,499.6
70.6452,392.8
70.6464,16.5
70.6604,15.8
70.6636,359
70.671,15.8
70.6768,314.1
70.6784,198.2
70.6911,35.2
70.7041,863.1
70.7097,207.9
70.7276,509.4
70.731,754.1
70.7425,437
70.7602,242.6
70.7803,115.9
70.7936,844.7
70.817,370.1
70.8371,152.7
70.8452,627.9
70.8591,617.2
70.873,154.5
70.9005,25.7
70.9028,361.1
70.9086,168.9
70.9151,152.1
70.9159,17.5
70.9322,18.1
70.9429,20
70.9611,206.5
70.9647,480.6
70.9872,804.1
71.0312,598.5
71.0409,19.1
71.0583,282.7
71.0738,105.1
71.1381,180.5
71.1435,17.7
71.1522,394
71.1742,633.4
71.1956,325
71.1965,242.9
71.2631,109.7
71.2662,739.7
71.2847,28.5
71.2866,424.3
71.3302,116.3
71.3336,433.4
71.3723,634.5
71.3753,402.2
71.3766,168.9
71.3792,106.2
71.4266,477.2
71.4679,396.3
71.4904,289
71.4982,520.9
71.5296,343.1
71.549,637.3
71.5598,317.3
71.5641,441.4
71.5658,420
71.5697,309
71.5716,153.4
71.6126,150.5
71.6377,114.2
71.6392,153.5
71.6519,457.1
71.6566,393.9
71.6627,16.6
71.6738,21.2
71.7142,19.1
71.715,144.3
71.772,121.8
71.7873,254.6
71.7906,879.6
71.7943,308.1
71.8103,145.4
71.8218,678.1
71.8524,564.9
71.8615,120.9
71.8695,18.9
71.8804,155.3
71.9089,160.4
71.9114,488.3
71.9229,180.8
71.9329,138.7
71.9448,155.2
71.946,714.5
71.9527,276.8
71.9719,200.1
71.9858,334.2
72.0564,32.5
72.0696,297.4
72.0701,547.3
72.0805,843.9
72.1041,160.7
72.165,311.2
72.1856,249.1
72.1871,266.5
72.2083,195.6
72.2112,329.5
72.2165,590
72.2181,23
72.222,22.4
72.2227,30.4
72.2236,62.4
72.2246,485.7
72.2253,863.3
72.2258,491.5
72.2269,417.8
72.2281,736.5
72.2295,1025.1
72.2313,4517
72.2322,1262
72.2329,992.6
72.2339,975.9
72.2346,1650.8
72.2352,2557.4
72.2357,2357.7
72.237,3459.2
72.2383,2669.3
72.2389,1824.7
72.24,1779.6
72.2413,3235.4
72.2419,3571.6
72.2431,3439.5
72.2445,2469.6
72.2455,2573.3
72.246,4354.5
72.2469,2767.5
72.2471,2571.6
72.2488,1195.1
72.2493,1377.6
72.2499,803.2
72.2504,693.2
72.2514,580.2
72.2524,1832
72.2541,1039.9
72.2561,24
72.2611,173.5
72.2655,370.8
72.2709,339.1
72.3048,18.9
72.3219,263.1
72.3596,553.9
72.3632,241.6
72.3647,759.1
72.3719,314.5
72.3804,19.2
72.382,130.8
72.3849,337.3
72.3981,375.4
72.4255,592.1
72.4311,379.9
72.4335,291.6
72.4394,326.2
72.4572,293
72.4653,163.2
72.4674,228.4
72.4744,156.5
72.4834,761.8
72.4944,266.7
72.5039,546.5
72.506,120
72.5142,237.1
72.5258,593.1
72.5378,132
72.5529,225.4
72.5552,213
72.5702,564.5
72.572,120.3
72.5773,401.2
72.5907,309.1
72.6075,177.6
72.6107,365.6
72.6417,661
72.6437,172.7
72.6551,183
72.6575,116.8
72.6629,203.4
72.6747,128.1
72.6784,176.7
72.6919,134.1
72.7015,386.1
72.7133,617.3
72.7332,300.8
72.7344,299.1
72.7429,142.4
72.7446,175.8
72.7472,220
72.7681,372
72.7752,164.7
72.7809,201.1
72.7835,433.4
72.8188,17.3
72.8578,203.6
72.9087,239.1
72.9174,369.5
72.9368,1100.3
72.9554,539.2
72.9562,166.8
72.9699,139.4
72.9913,148.8
73.0003,959.7
73.0215,193.9
73.0254,247.7
73.0386,321.7
73.0454,19.4
73.0539,646.9
73.0632,366.4
73.0854,327.9
73.1436,316.1
73.1599,163.8
73.1633,17.8
73.1782,532.7
73.1844,287.6
73.1935,160.3
73.1975,786.9
73.2,872.1
73.2027,18.2
73.2173,27
73.2184,301.5
73.2247,109.6
73.2967,15.1
73.33,376.6
73.3387,184.3
73.3776,117.4
73.3785,168.7
73.3877,272.1
73.3959,200.3
73.3977,713.3
73.398,684
73.4844,104.9
73.495,254.2
73.5071,324.4
73.5201,139.9
73.5221,173.1
73.5235,283.6
73.5455,689.4
73.5861,321.4
73.6049,162.6
73.607,482.5
73.6138,110.3
73.6338,201.3
73.6572,183.1
73.6598,156.8
73.6748,290
73.6793,362.4
73.6884,26.6
73.6961,255.1
73.7023,15.4
73.7159,279.9
73.7243,109.7
73.7288,355.3
73.7553,126.6
73.7628,113.4
73.7694,334.5
73.7876,199.8
73.799,32.6
73.808,309.4
73.8135,183.9
73.825,205.5
73.8295,1043.2
73.8314,123
73.8889,218.4
73.9094,521.7
73.9197,480
73.9204,27.2
73.9231,189.1
73.9315,203.1
73.9543,200.5
73.9564,20.1
73.9592,284.6
73.965,254
73.994,118
73.9974,125
74.0144,18.3
74.0163,19.3
74.0519,188.2
74.0525,318.4
74.0543,642.8
74.0598,1253.3
74.072,151.2
74.0835,282.5
74.0861,249.6
74.117,17.1
74.1388,640.5
74.1448,196.7
74.1491,206.1
74.1589,129.1
74.1762,287.7
74.1872,427.6
74.2055,169.9
74.2086,516.3
74.2321,381.3
74.2441,202
74.2447,155.8
74.2856,168.2
74.2885,119.8
74.2927,16.1
74.3037,200.5
74.3074,252.2
74.3165,22
74.3225,351.4
74.3439,190.3
74.3488,302.1
74.3534,211.8
74.3566,625.2
74.3685,17.8
74.3699,640.6
74.3736,523.2
74.3815,509.8
74.3881,33.9
74.3949,294.4
74.4009,26.6
74.4496,148.7
74.4613,166.9
74.4652,583.9
74.4831,466.7
74.4934,336.9
74.5018,185.4
74.5075,875.2
74.5218,332.3
74.5226,150.7
74.544,750.3
74.5617,239.6
74.5729,330.3
74.6278,235.9
74.649,462.1
74.6505,477.7
74.6516,289.6
74.6686,318.8
74.6735,655.4
74.7141,393.2
74.7239,522.4
74.7291,14.9
74.7576,284.5
74.7626,306
74.7682,19.1
74.784,628.5
74.802,887.4
74.8219,154.5
74.8245,19.1
74.8252,18
74.84,17.6
74.8918,425.5
74.935,125.1
74.9439,391.9
74.9503,180.4
74.9748,199.5
74.9782,553
74.9937,136.7
75.0396,402.9
75.0536,177
75.0544,121.6
75.0605,234.4
75.0639,321.2
75.0719,416.8
75.0867,17.6
75.1031,407.9
75.1088,18.1
75.1145,16.3
75.1192,168.4
75.1272,25.2
75.1276,26.7
75.1873,651.9
75.2101,360.1
75.2118,17.3
75.2156,122.6
75.2206,192.7
75.2337,114.7
75.2531,282.2
75.2645,205.1
75.2734,256.1
75.2745,128.5
75.2984,337.7
75.3043,333.4
75.3055,100.5
75.3386,17.1
75.356,707.3
75.3661,16.6
75.3712,382.3
75.3923,114.9
75.4157,429.3
75.4199,27.4
75.4265,18.3
75.4401,140
75.4505,259.2
75.4538,787.5
75.4544,189.4
75.4547,156.7
75.4567,517.4
75.4602,511.7
75.4715,489.3
75.491,635.7
75.4919,156.9
75.4926,17.7
75.5104,720.5
75.5196,240
75.5321,235
75.5391,17.5
75.5718,303.3
75.5848,292.3
75.601,154.8
75.6234,30.5
75.6601,505.5
75.6615,823.3
75.6662,17.7
75.6739,366.3
75.6871,410.8
75.6929,455.5
75.7166,744.8
75.7327,220.9
75.742,306.1
75.7459,18.5
75.7499,18.8
75.7509,138.3
75.7662,534.9
75.7753,17.4
75.7838,269.1
75.8019,15.5
75.8247,614.2
75.832,360.6
75.8362,589.6
75.8378,726.7
75.8512,186.8
75.8872,181.2
75.9201,323.7
75.9208,313
75.9292,416.3
75.9477,149.5
75.951,160
76.0089,330
76.0163,429.4
76.0196,224.6
76.0382,15.2
76.043,151.1
76.048,239.5
76.0565,116.1
76.0585,182.7
76.0648,443.5
76.0822,124.2
76.0902,573.9
76.111,94.6
76.149,601.5
76.1567,185.3
76.1597,217.9
76.1781,291.4
76.1812,20.8
76.2228,130.1
76.2356,911.7
76.2665,757.4
76.2677,872.5
76.2719,125.1
76.2901,835
76.2914,105.4
76.3294,19.1
76.331,18.5
76.3372,670.7
76.352,301
76.3589,552.6
76.3726,529.6
76.3961,153.6
76.4302,286.8
76.4317,114.6
76.4439,560.4
76.4672,172.8
76.4715,300.4
76.4753,132.4
76.4862,202.7
76.4877,146.3
76.5324,404.5
76.5356,406.1
76.5839,18.7
76.5998,393.9
76.6295,141.6
76.6478,142.7
76.6526,17.8
76.6556,353.8
76.6648,20.3
76.6689,425.8
76.6842,741.8
76.6862,381.6
76.6884,629
76.7177,384.2
76.7387,875.9
76.7488,302.9
76.7601,646.5
76.7895,302
76.8122,134.2
76.8198,19.8
76.8356,20.9
76.856,155.7
76.8615,166.6
76.867,153.8
76.8672,164.4
76.8765,17.8
76.9018,397.1
76.903,108.1
76.9059,553.9
76.9086,233.5
76.9228,17.6
76.9364,209.7
76.9534,938.1
76.9603,364.5
76.9721,159.6
76.9793,166.8
76.9921,579.4
77.004,116.8
77.007,711.5
77.0172,543.4
77.0331,16.7
77.0345,23.4
77.0354,53.7
77.0383,93536
77.0498,159.4
77.0523,272.2
77.0549,335.2
77.0879,137.9
77.0924,17.5
77.1197,126.5
77.1512,508.5
77.1518,141
77.1897,289.1
77.2645,194.5
77.2698,141.5
77.2893,103.9
77.3116,190.1
77.3692,151.8
77.3954,312
77.4084,810.4
77.4307,675.5
77.442,110.2
77.4763,18.1
77.4778,677.8
77.4897,182.5
77.5037,257.4
77.5106,191.9
77.5369,97.4
77.5387,438.7
77.5408,321.2
77.5669,886.1
77.5749,104.4
77.5877,309.9
77.5931,311
77.5949,138.4
77.6152,136.1
77.6419,155.2
77.6436,19.2
77.6458,288.5
77.6494,312.2
77.6631,182.9
77.7221,167.1
77.7268,725.5
77.7321,19.5
77.7444,27.4
77.7661,18.5
77.7734,182.6
77.7851,180.1
77.8273,34
77.8295,379.3
77.8365,375.9
77.8386,150.2
77.8498,402.2
77.8656,844.6
77.8708,17.2
77.8835,16.8
77.8879,237.4
77.9272,591.1
77.9401,17.3
77.9425,825.9
77.9836,395.4
77.9933,159.2
78.0107,252.4
78.0113,655.9
78.0145,376.6
78.0177,626.7
78.0241,20
78.0386,629.9
78.0416,2268.8
78.0697,239.4
78.0708,162.1
78.0937,261
78.1149,577.2
78.1174,641.2
78.1518,915.3
78.1597,19.1
78.1673,17
78.1822,28.6
78.2102,125.2
78.2291,391.9
78.2511,20.9
78.2632,15
78.2738,236
78.2799,284.2
78.2878,247
78.2896,694.7
78.3495,526.9
78.3522,107.3
78.3546,105.8
78.3912,257.8
78.4002,264.7
78.424,17
78.443,210.7
78.4459,541.9
78.4479,224
78.4548,216.9
78.4566,339.6
78.4672,180
78.4941,151.7
78.495,148.5
78.5342,256.3
78.5704,727.8
78.5789,215.5
78.6413,270
78.6417,150.3
78.6817,706.8
78.7171,124.1
78.7213,236.9
78.7224,19.6
78.7267,552.9
78.7788,19.2
78.812,764.6
78.8126,112.6
78.8556,887.4
78.8688,342.1
78.8774,345.2
78.8809,372.5
78.8953,428.1
78.9047,816.8
78.9209,132.2
78.925,207.5
78.9564,368.2
78.9628,731.1
78.9742,278.6
78.976,129.2
78.9967,136.5
78.9974,549
79.011,538
79.0519,114.6
79.054,1180.3
79.0757,17.3
79.0783,320
79.0821,127
79.112,705.9
79.1218,16
79.1297,20.6
79.1354,17
79.146,180.8
79.1663,461.9
79.1771,120.8
79.1789,428.7
79.2072,157.7
79.2147,147.4
79.2241,259.1
79.2308,18.3
79.2434,330.5
79.257,539.9
79.3141,198.9
79.3186,671.1
79.3195,387.6
79.4098,512.8
79.4165,216.2
79.4406,107.5
79.4558,167
79.4635,28.6
79.4818,516.9
79.4886,198.6
79.5161,346.3
79.5232,129.3
79.5271,523
79.5555,147.4
79.5574,339.1
79.5591,260.1
79.5626,515.6
79.5797,511.2
79.5889,877.5
79.5924,566.2
79.6141,212.6
79.6438,176.9
79.6505,505.8
79.6529,155.7
79.6678,17.2
79.7113,317.4
79.7198,17.1
79.7265,262.6
79.7275,289.4
79.7308,165.7
79.7382,623.8
79.7589,109.1
79.7871,787.3
79.795,428.3
79.8156,453.4
79.8263,107.9
79.8453,170.2
79.8487,166.4
79.87,189.6
79.8724,243.5
79.8746,462.2
79.8805,216.9
79.8992,327.3
79.9169,275.7
79.9359,334.5
79.9482,164.9
79.9594,21.5
79.9756,592.8
79.9798,168
79.9806,909
79.9823,698.4
79.9991,18.6
80.0048,371.1
80.0332,491.2
80.0508,169.5
80.0727,393.4
80.0928,125.8
80.1111,140.7
80.1118,461.4
80.1257,174
80.1359,182.3
80.1387,188.3
80.1405,162.4
80.1487,137.9
80.152,334.6
80.1566,203
80.1748,261.7
80.1769,19.1
80.2169,668.2
80.2188,326.4
80.274,349.5
80.2748,18.2
80.2846,141.9
80.3002,574.4
80.3107,303.6
80.32,214.2
80.3483,266.2
80.365,492.4
80.3722,140.7
80.3761,174.2
80.3786,125.4
80.408,154.6
80.4145,221.6
80.4463,17.1
80.4639,377.4
80.4857,20
80.4911,28.3
80.5069,19
80.5117,281.4
80.5145,217.6
80.5159,326.7
80.5577,16.8
80.5682,293.6
80.5883,19.9
80.6478,261.8
80.654,196.9
80.6848,129.5
80.6948,322.4
80.7237,673.4
80.7626,125.4
80.7761,545.6
80.794,278.5
80.7969,17.9
80.8355,838.7
80.8625,692.4
80.8684,194.8
80.886,1038.2
80.9,109.4
80.9048,198.2
80.9401,187.5
80.9476,34414.6
80.9571,647.3
80.9581,792.4
80.9661,411.6
80.9779,111.9
81.0027,165.9
81.0109,192.6
81.0696,980.5
81.1128,514.8
81.1353,18.1
81.1516,318.1
81.1608,567.7
81.1679,122.5
81.1718,2738.9
81.174,480
81.1752,30.4
81.1797,186.1
81.18,224.1
81.1926,18.1
81.2265,329.7
81.2547,493.4
81.2708,336.2
81.2865,110.3
81.2978,331.8
81.3988,215.3
81.407,525.5
81.4634,362.9
81.5069,112.2
81.5147,821.1
81.5242,165.7
81.5629,110.7
81.5712,161.3
81.5774,145.4
81.6049,16.7
81.6193,150.9
81.6373,158.7
81.657,221.8
81.6752,534.9
81.6917,356.3
81.7006,336
81.7207,166.8
81.7236,247.6
81.7243,106.9
81.7374,252.3
81.7388,308.2
81.7655,745.4
81.7721,139.2
81.7731,272.3
81.81,545.9
81.8141,1089.2
81.8236,288.4
81.8453,179.3
81.8729,228.2
81.8864,328.8
81.931,33.7
81.9716,606.1
82.0378,165.9
82.0622,679.7
82.0777,603.6
82.0811,170.4
82.0888,654
82.0992,426.4
82.1118,191.1
82.1216,126.3
82.1295,407.4
82.136,154.3
82.2319,318.2
82.2419,187
82.2502,128.7
82.2565,131.8
82.2719,640.6
82.2942,168.1
82.2977,681.1
82.3162,411.6
82.3351,180
82.3358,144.8
82.3415,321.7
82.4114,208.8
82.4266,258.8
82.4291,107.2
82.434,20.8
82.4419,457.2
82.446,282.5
82.447,535.3
82.4482,463.5
82.4811,258.7
82.4824,270.7
82.4913,608.1
82.5524,18.1
82.5775,18.1
82.5986,320.2
82.6209,839.6
82.6218,143.6
82.6281,105.7
82.6518,738.5
82.6747,417.6
82.6989,158.9
82.7189,21.1
82.7225,409.4
82.7325,589.4
82.7412,260.9
82.7458,425.2
82.7527,19.5
82.7687,405.7
82.7769,327
82.7781,768.3
82.779,18.5
82.7928,200.7
82.8348,157.8
82.841,179.8
82.8456,506.5
82.9134,567.6
82.9185,404.3
82.9375,393
82.9413,399.6
82.9446,9493.7
82.9962,312.9
83.0121,407.2
83.0213,266.9
83.0238,211.1
83.0533,163.9
83.0637,156.1
83.0677,215.8
83.0852,24.5
83.1046,656.1
83.1308,108.8
83.1514,21.9
83.1615,420.1
83.1712,423.6
83.1781,486.1
83.1852,625.4
83.19,370.9
83.2001,341.9
83.2279,16.9
83.2405,439.7
83.2541,294.3
83.2803,482.5
83.2933,266.9
83.3111,129.7
83.3324,311.4
83.4022,336.2
83.438,448.3
83.4441,366.7
83.4545,212.8
83.4616,122.1
83.4726,322.7
83.4828,166.2
83.4885,169.2
83.5068,342.3
83.5215,18.7
83.5478,773.6
83.5616,829.6
83.5815,150.4
83.5864,171.4
83.589,579.5
83.5894,764.4
83.5981,557.6
83.622,869
83.6542,415.7
83.6653,99.9
83.6931,368.3
83.6997,290.5
83.7137,348.6
83.7152,520.4
83.7203,18.9
83.7422,16.2
83.8264,19.7
83.8301,396.5
83.8426,128.2
83.8487,215.2
83.8748,146.9
83.8835,701.8
83.8842,159.2
83.8941,486.5
83.902,18.5
83.9164,874.3
83.9335,374
83.949,143
83.9806,283.9
84.0059,16.9
84.0429,19.8
84.05,18.6
84.0706,556.4
84.1155,152.1
84.145,101.1
84.1483,440
84.1585,215.8
84.1644,888.5
84.1801,110.8
84.1867,152.5
84.2379,172.2
84.2516,200.6
84.2795,20.4
84.3134,422
84.3145,396.4
84.3202,192.6
84.3207,162.1
84.3408,175.4
84.3655,169
84.3705,136
84.3747,18.1
84.3861,15.7
84.4276,292.5
84.429,158.1
84.4723,168.3
84.4799,16.9
84.4968,134.9
84.5142,621.3
84.5258,202.3
84.5459,209.6
84.5788,247.5
84.5821,343.2
84.5836,446.9
84.597,396.8
84.6076,351.4
84.6407,526.5
84.6482,213.2
84.6699,160.1
84.7035,152.7
84.7142,274.5
84.7382,337.7
84.7627,534
84.8117,823.8
84.8181,717.4
84.8289,19.9
84.8607,409.9
84.8702,559.3
84.9005,24.9
84.9236,179.2
84.9594,14307.2
84.9907,171
85.0014,484.8
85.0023,708.2
85.0258,320.4
85.0487,663.3
85.0516,16.1
85.0633,129.6
85.085,506.9
85.1115,651
85.1584,143.6
85.1779,833.7
85.1975,295.3
85.2431,437
85.2678,319.2
85.2919,537.2
85.3113,381.2
85.3288,18.9
85.3359,193
85.3366,141.5
85.3436,18.7
85.3478,323.5
85.3571,546.5
85.4117,17.1
85.486,759.7
85.4892,512.2
85.4977,814
85.5019,1014.7
85.5227,331.5
85.5376,332.2
85.5806,470.4
85.59,469.2
85.592,539.6
85.5933,422.7
85.5962,545.8
85.6097,29.8
85.6194,555.4
85.6324,394.5
85.6347,154.6
85.6549,1305.1
85.6677,584
85.6922,157.7
85.6966,789.6
85.7105,17.6
85.7459,476.2
85.7516,499.9
85.7705,196.6
85.781,280.4
85.8204,199.4
85.8424,228.8
85.8436,136.7
85.8541,159.2
85.8903,504
85.8973,168.7
85.9071,386.2
85.913,377.4
85.9207,331.2
85.9452,320.1
85.9728,109.2
86.0078,276.6
86.0145,559.4
86.0598,15170.6
86.0635,778.6
86.0649,644.2
86.0725,411.1
86.0759,608.8
86.0791,814.7
86.0848,542.8
86.0938,17.1
86.0962,124496.1
86.1226,361.6
86.1513,483.2
86.1539,113.5
86.1565,191.6
86.1628,612.9
86.1685,772.8
86.1699,519.8
86.1777,719.9
86.1822,589.3
86.1947,17.6
86.1999,182.6
86.204,913.4
86.2464,145.2
86.2536,788.7
86.2772,132.4
86.3269,17.5
86.3543,113.6
86.3563,571.2
86.3764,124.6
86.4196,383.5
86.4493,1028.8
86.4721,388.4
86.5154,105.9
86.5207,118.7
86.525,193.2
86.5495,172.3
86.5576,133.6
86.5879,358.7
86.5905,20.1
86.6026,360.4
86.6067,145.8
86.6443,154.8
86.6618,294.6
86.6834,370.7
86.7109,141.6
86.7178,163.1
86.7797,140.8
86.7962,471.6
86.8255,170.2
86.8448,18.4
86.8834,927
86.8868,198
86.9081,17.9
86.9526,106.9
86.9765,520.2
86.9814,329.6
86.9858,345.8
87.0242,625.2
87.0456,231.3
87.0525,306.5
87.0995,3560.4
87.1221,612.2
87.1507,145.5
87.1657,366
87.1726,432
87.1897,153.3
87.2156,564.2
87.2259,273.7
87.2522,16
87.2576,165.8
87.3041,545.2
87.3488,546
87.36,603.5
87.3793,488.9
87.4168,561.1
87.4201,1712.2
87.4289,300
87.4515,383.5
87.4762,186.9
87.4986,28.4
87.5114,17.5
87.5145,20
87.5301,575.7
87.5353,18.7
87.5552,134.8
87.598,124.6
87.6023,183.9
87.6302,353.5
87.649,213.7
87.6602,448.9
87.6655,426.9
87.6703,141.6
87.6722,276.1
87.6886,149.6
87.6941,475.2
87.697,230.4
87.7051,282.5
87.7064,17.9
87.7098,354.7
87.7432,208.1
87.7601,267
87.7912,202.9
87.8159,17.9
87.8331,110.1
87.8578,216.4
87.8803,17.9
87.9011,169.4
87.9179,381
87.9246,441.4
87.9329,541.7
87.9721,161.1
87.9857,362.6
88.0317,516.1
88.0334,385.7
88.039,3209.9
88.0509,167.9
88.0654,112.6
88.076,944.1
88.0909,186.3
88.1097,908.5
88.1344,441.2
88.1929,471.2
88.2169,230.4
88.239,125.5
88.2563,16.1
88.2785,533.9
88.2934,16.3
88.299,490.8
88.3435,736
88.3519,98
88.36,514.1
88.3879,177.3
88.4157,155.4
88.4306,17.7
88.436,348.6
88.4681,143.9
88.477,477.4
88.4782,547.1
88.4899,422
88.5405,17
88.5532,611.1
88.555,169.2
88.5907,685.3
88.5964,568.9
88.6256,635.6
88.6275,569.3
88.6283,33.7
88.6575,435.8
88.6583,20.4
88.6622,912.4
88.6759,20.1
88.7298,355
88.7344,116.8
88.7431,198.3
88.7502,603.4
88.7841,199.7
88.786,22.6
88.8379,332
88.8471,347
88.8654,301.4
88.8811,375.7
88.8931,187.8
88.916,100.3
88.9274,530.6
88.9418,504.9
88.9502,172.1
88.9522,84
88.9537,17.1
88.9553,115.9
88.9717,496.3
89.0009,209.7
89.0439,221
89.0445,174
89.0483,16.7
89.0497,595.5
89.0659,23.9
89.071,376.7
89.1109,18.1
89.1399,136.7
89.2115,791.7
89.2267,179.1
89.228,278.9
89.2649,216
89.2707,254.5
89.2758,206.8
89.2967,506.6
89.3023,309.7
89.3063,672.6
89.3323,355.9
89.3654,123
89.3785,112.5
89.3897,170.3
89.4042,266
89.4138,729.5
89.4534,20.8
89.4724,222.7
89.4751,668.5
89.4878,834.7
89.4956,29.8
89.5134,105.7
89.5202,185.8
89.5237,234.6
89.5373,287.9
89.5435,689.2
89.5747,18.5
89.5953,131.1
89.5975,161.1
89.608,116.8
89.632,310.1
89.6329,134.1
89.6342,164.5
89.6446,990
89.6787,142.8
89.6819,753.8
89.6867,142.7
89.7007,19.1
89.7119,283.6
89.7218,19.2
89.8296,456.2
89.8955,512.7
89.9251,16.2
89.9292,303.3
89.9318,602.2
89.9608,23.1
89.9635,507.8
89.9676,140.4
89.995,115.1
90.0253,360.8
90.0275,147.2
90.0282,416.8
90.0631,321.6
90.0813,439.6
90.0927,401.4
90.0958,171.1
90.138,189.7
90.2166,140.5
90.2236,479.1
90.2482,534.2
90.2566,372.8
90.2853,337.4
90.3077,285.2
90.3417,281.2
90.4316,188.4
90.4619,98.2
90.5069,215
90.531,124.9
90.5366,180.5
90.5408,149
90.5755,286.4
90.5908,1035.1
90.5979,757.9
90.6374,573.6
90.6538,563.2
90.6739,375.1
90.7079,16.5
90.7101,19.7
90.7355,204.4
90.7396,616.3
90.7478,196.4
90.7542,552.4
90.7737,405
90.7889,419.3
90.8239,431.5
90.8271,29.2
90.828,281.1
90.8334,288.3
90.8797,150.2
90.8869,223.1
90.8894,165.7
90.8911,213
90.903,138.4
90.9328,18.3
90.9431,167.8
90.9475,3982.5
90.9764,8224.8
90.9948,17.9
90.9999,27.8
91.0073,18.7
91.023,140.6
91.0396,159.7
91.0461,257.3
91.0489,269.6
91.054,2782.6
91.0591,172.4
91.086,383.3
91.1051,20.1
91.1176,358.2
91.1471,18.3
91.1486,112.9
91.1525,330.7
91.2229,15.1
91.2258,20.4
91.2594,168
91.3083,171.9
91.3197,169.9
91.3253,159.2
91.3315,548.6
91.3533,539.8
91.3601,378.8
91.3624,109.1
91.4135,905.8
91.4186,692.7
91.4295,18.7
91.4324,107.3
91.5289,472.2
91.5536,454
91.5725,420.6
91.6084,324.9
91.6235,17.8
91.6323,782.1
91.6494,826.3
91.6594,177.4
91.6624,366.2
91.6641,111.6
91.6989,220.5
91.6996,233.3
91.7042,302.9
91.7707,312
91.7865,926
91.8051,18.4
91.808,513.9
91.8342,745.3
91.8471,144.8
91.8703,16.3
91.8937,283
91.9043,16
91.9046,15.2
91.9142,175
91.9185,311.8
91.9192,334.1
91.9228,101.4
91.9464,212
91.9479,49.7
91.9491,122.7
91.9516,216.7
91.9828,682.4
91.9923,298.1
91.9936,545.7
91.9963,646.7
92.0049,551.8
92.0266,265.1
92.0416,173
92.0493,167.1
92.0572,23.4
92.0674,1120.8
92.0839,130.4
92.114,16.8
92.1187,529.3
92.1359,326.7
92.1627,493.8
92.2037,179.7
92.2049,17.5
92.208,672.6
92.2261,756.2
92.2341,484.8
92.2599,20.9
92.2668,115
92.3042,506.3
92.3225,116.2
92.3281,576.3
92.3416,158.3
92.3471,222.7
92.3552,146.2
92.3584,619.6
92.3619,692.6
92.3966,20.9
92.4147,518.7
92.4432,179.6
92.4675,236
92.5168,164.1
92.5215,453.5
92.5535,332.3
92.5687,16.5
92.6288,572.7
92.6318,108.4
92.6435,503.5
92.6593,142.1
92.697,29.1
92.7037,16.1
92.7135,655.6
92.7415,462.2
92.7509,264.4
92.7722,16.8
92.7974,96
92.8053,489.8
92.8168,1000.5
92.8298,418.5
92.8492,274.5
92.8494,288.7
92.8539,28.9
92.8605,597.2
92.8797,125.7
92.8799,127.3
92.9001,43.2
92.9109,154.7
92.9189,211.4
92.9261,193.9
92.939,751.1
92.9452,192
92.9516,18.7
92.9551,183.6
93.0006,555
93.0089,261.6
93.0125,307.8
93.0157,134.7
93.0161,135.4
93.018,166.2
93.0359,122.2
93.0581,19.4
93.0761,18.3
93.0769,259.9
93.0846,184.1
93.0857,505.5
93.1005,106.1
93.115,528.3
93.1209,232.3
93.1313,109.6
93.1862,549
93.2109,270.9
93.2774,272.9
93.3051,335.4
93.3084,199.3
93.3136,182
93.3247,168.9
93.3841,186.8
93.4089,116.6
93.4112,271.4
93.4667,754.6
93.4851,103.5
93.5527,270
93.576,30.1
93.5951,155.6
93.6016,294.1
93.6108,157.6
93.6161,418.7
93.6218,309.1
93.6228,252.7
93.6975,151.7
93.7063,127.3
93.7121,327.7
93.7151,261.5
93.7374,332.8
93.7778,201.8
93.7943,300.9
93.8144,661.1
93.8241,16.7
93.8486,341.1
93.8507,483.2
93.8618,170.7
93.8913,301.8
94.0411,44263.6
94.0568,187.9
94.0604,384.6
94.0674,351.6
94.0691,896.1
94.0799,881.4
94.0964,550.5
94.1085,369.5
94.1432,124
94.1459,311.3
94.1797,193.9
94.1838,121.7
94.2011,364.3
94.232,534.4
94.2534,302.9
94.2588,18.3
94.284,474.8
94.2952,244.6
94.3067,102.6
94.3374,364.1
94.3563,169.4
94.3598,863.9
94.4131,127.5
94.4456,16.8
94.4752,864.1
94.4872,758.9
94.5154,769.1
94.5453,292.6
94.5471,270
94.5593,1005.6
94.5697,326.8
94.5907,552.9
94.5979,215
94.6234,540.3
94.6328,359.1
94.6466,16.5
94.6508,300.6
94.6527,202.1
94.7105,17.2
94.7116,139.6
94.7525,282
94.7966,471.2
94.8381,226.1
94.8573,164.1
94.8757,120.8
94.8925,734.5
94.896,459.6
94.9069,246.3
94.9113,179.9
94.9256,676.8
94.9293,21.5
94.9353,16.7
94.9667,420.6
94.9913,133.5
95.0354,24.8
95.0445,775.9
95.0448,787.8
95.0468,311.1
95.0489,334512
95.0569,287.3
95.0685,135.3
95.0854,272.3
95.097,223.4
95.1118,17.2
95.1496,110.7
95.1534,862.5
95.1721,471.7
95.1804,193.5
95.1837,434.2
95.1926,363.8
95.1939,397.1
95.2073,537.8
95.2107,406
95.2139,126.4
95.2171,401.4
95.2418,292.9
95.2876,186.9
95.2908,463.4
95.32,275.1
95.3259,258.4
95.333,134
95.3342,152.2
95.3503,820.4
95.3608,327.3
95.3891,370.8
95.3929,349.7
95.4671,305.7
95.4763,151.7
95.5207,195.4
95.5486,15.8
95.6083,326.8
95.6106,178.4
95.6448,640.5
95.6541,465.6
95.6605,601.2
95.6647,358.9
95.6682,17.7
95.6721,344.8
95.6918,218.4
95.7279,143.8
95.7406,222.2
95.7428,166.3
95.7504,352.7
95.7556,16.5
95.7854,18
95.7973,723.8
95.81,111.5
95.8579,373.9
95.8968,18.1
95.9001,172
95.9063,567.8
95.91,17.1
95.9143,125.5
95.9382,201.3
95.9461,173
96.0483,613.7
96.0523,14237.2
96.0634,472.9
96.0759,309.7
96.1114,376.9
96.1285,131.5
96.1371,805.6
96.1417,274.9
96.1691,330.6
96.2098,400
96.226,748.7
96.2428,392.4
96.255,144.1
96.2578,115.3
96.261,476.4
96.2716,276
96.2763,288.7
96.3155,301.1
96.322,147.6
96.3298,364.3
96.3326,137.4
96.3398,758.9
96.3883,17.7
96.4153,684.9
96.4246,341.7
96.4296,105.9
96.4359,183.7
96.5722,203
96.6022,318.9
96.6123,316.4
96.6718,204.9
96.6758,360.2
96.6791,420.5
96.8031,190.9
96.9088,241.4
96.9216,129214
96.9374,82.3
96.9572,459.3
96.965,990.6
96.9959,122.6
96.9998,236.8
97.0072,24.3
97.0093,118.8
97.0103,44.1
97.0532,21.8
97.0555,20.7
97.0651,130.1
97.0678,301
97.0757,21
97.0761,22.8
97.1009,51.1
97.1068,163.3
97.1312,970
97.2103,17
97.2253,463.6
97.2409,368.9
97.2947,197.1
97.3031,791.9
97.3214,17.6
97.3371,367.3
97.3402,121.7
97.4344,103.9
97.4501,198.6
97.4569,470.2
97.4905,200.6
97.5034,695.1
97.5092,263.8
97.5215,142.3
97.5273,141.3
97.5396,1008.7
97.5616,547
97.5832,599.9
97.5905,345
97.6114,231.6
97.6204,537.1
97.6491,145.2
97.7019,322.7
97.725,582.2
97.7294,292.9
97.7367,643.4
97.7385,342.4
97.7395,623
97.7638,449.7
97.7712,25.5
97.777,17.5
97.7895,477.8
97.8267,314.3
97.8306,293.9
97.8925,482.6
97.8928,474.9
98.0054,17.5
98.0079,102.5
98.0161,491.2
98.061,451.2
98.1254,191.7
98.142,196.3
98.1564,369
98.2231,704.9
98.2548,777.7
98.263,518.3
98.2651,163.3
98.3128,203.2
98.3315,165.8
98.344,18.7
98.3502,564.8
98.3856,153.5
98.3902,128.9
98.3996,242.5
98.423,368
98.4282,272.2
98.4296,714.2
98.4426,18.6
98.4453,131.3
98.4986,338.6
98.499,341.8
98.5335,339.7
98.5399,291.6
98.5421,180
98.571,588.6
98.6135,146.2
98.6838,652.1
98.7825,213.2
98.8233,341.2
98.8269,585.5
98.8334,19.1
98.8494,150.3
98.885,390.5
98.8932,186.4
98.9045,113.8
98.9186,38870.1
98.9197,4173.6
98.9339,199.4
98.937,650.9
98.9723,172.7
98.9751,10423.3
98.9769,100.1
98.9805,177.5
98.984,96.3
98.9859,564.6
99.0172,286
99.0216,278.2
99.0356,174.3
99.0678,298.3
99.0912,22
99.0972,203.2
99.1302,488.9
99.1373,106.3
99.1705,759.3
99.3054,139.9
99.3178,169.4
99.3264,541.5
99.3696,446.7
99.3798,286.3
99.4277,279.6
99.4485,220.1
99.4944,1034.3
99.4986,328
99.545,189.2
99.5572,136.1
99.5702,19
99.5794,123.8
99.6184,214.8
99.6336,273.4
99.6887,152
99.692,366.1
99.7097,363
99.7292,652.9
99.7305,147.7
99.7477,166
99.7598,446.6
99.8025,279.4
99.8075,153.3
99.809,111.4
99.8401,253.3
99.8634,16.9
99.8782,29.4
99.8839,756.7
99.9035,28.7
99.9061,464.8
99.9552,18.2
99.9854,308.5
100.01,278.8
100.0312,839
100.0335,589.8
100.0524,330.4
100.0755,21.5
100.0833,631.5
100.1403,337.1
100.1509,327.3
100.2238,346
100.2298,333.2
100.2361,803.8
100.2398,269.2
100.2954,113.6
100.3141,708.6
100.3405,555.2
100.4071,399.7
100.4156,21
100.4664,134
100.4677,147.3
100.473,222.3
100.4812,154.8
100.5242,325.3
100.5559,183.6
100.5932,506.9
100.6228,136.2
100.6505,610.9
100.6534,370.8
100.6574,190
100.6732,148.1
100.6896,27.6
100.7041,32.1
100.7061,16.9
100.7087,252.9
100.7362,119.9
100.7375,499.9
100.7931,19.8
100.7969,102.1
100.8099,17.1
100.8889,135.3
100.8908,233.8
100.9167,455.7
100.9304,310.5
100.9555,160
101.0126,135.1
101.0194,132.8
101.0541,352.5
101.0707,879.1
101.0792,367.7
101.0912,301.9
101.0925,331.7
101.1379,156.4
101.1591,258.5
101.2755,326.2
101.2825,532.3
101.2868,117.5
101.3104,168.2
101.3212,176.8
101.3787,149.6
101.4018,17.6
101.4108,662.3
101.4816,285.4
101.5236,250.2
101.543,225.3
101.553,281.1
101.5698,645
101.6391,118.8
101.6414,119
101.6462,344.1
101.6574,792.7
101.6685,18.6
101.7097,33.1
101.7215,131.8
101.7583,248.1
101.8019,798.9
101.8268,586.3
101.8325,277.4
101.8443,17.5
101.8772,612
101.9355,18.8
101.9635,341.5
101.9752,504.6
101.9824,416.6
102.0355,147.7
102.0548,1388.8
102.0578,462.3
102.0653,474.2
102.0739,185
102.0871,431
102.0922,855.3
102.1126,320.4
102.1201,270.8
102.1428,419.7
102.1762,127.6
102.195,18.1
102.2031,294.8
102.2112,113
102.217,300.6
102.222,326.4
102.2346,25.3
102.2759,30.3
102.2786,17.3
102.2967,811.9
102.3082,308.5
102.329,588.9
102.3428,18.4
102.3513,17
102.3802,189.1
102.4693,323.1
102.4725,851
102.4774,595.8
102.4821,154.2
102.5069,128.5
102.5304,339.3
102.5371,268.3
102.5913,185.9
102.5954,379.7
102.6055,16.5
102.6213,140.4
102.6572,585.3
102.6747,366.4
102.7251,150.6
102.737,250.4
102.745,640.5
102.7561,18.6
102.7683,370
102.7705,127.7
102.7905,206.2
102.7949,262.1
102.8025,377.7
102.8143,352.8
102.8256,18.1
102.8304,469.5
102.832,139
102.8333,384.3
102.8364,224.5
102.8543,134.6
102.8596,728.1
102.8659,642.9
102.8671,350.5
102.9105,264.2
102.9152,183.1
102.9274,637.3
102.9329,318.4
102.9473,24.8
102.9593,619.2
102.9682,680.7
102.9701,470.8
102.9815,135.3
102.9928,128.9
103.017,294.7
103.0365,591.2
103.0477,173.1
103.0502,940
103.0582,327.4
103.0709,104.6
103.0869,131.3
103.0907,157.2
103.0941,167.7
103.096,242.3
103.1104,134.9
103.1324,197.8
103.1519,119.3
103.1685,131.9
103.1862,16.5
103.1969,22.1
103.2737,299.1
103.2975,163.1
103.3088,145.8
103.3322,103.9
103.3459,551.3
103.3788,157.2
103.3814,846.7
103.3831,152.1
103.4261,349.2
103.4426,270.5
103.453,257.8
103.4789,377.5
103.5016,132.4
103.5545,182.6
103.5699,332.8
103.581,198.4
103.6216,351.5
103.6249,216.9
103.6404,126.2
103.7007,783
103.7063,540.5
103.7261,788.7
103.7633,180.1
103.793,340
103.7941,237.6
103.8169,198.7
103.8705,19.5
103.8865,510.8
103.8933,423.7
103.9008,958.9
103.9129,279.4
103.9188,624.4
103.9562,337.2
103.9792,343.4
103.9934,19.3
103.996,325.5
104.0286,352.6
104.0316,146
104.0507,145.6
104.0754,138.8
104.093,17
104.0945,757
104.1026,108.3
104.1068,444159.4
104.1294,131.1
104.1552,17.8
104.1574,515.9
104.194,187.1
104.2009,323.1
104.2069,150.9
104.2103,801.7
104.2142,629.6
104.2241,590.4
104.23,508.8
104.2878,142.9
104.2929,199.6
104.3503,168.1
104.357,484.6
104.3801,576.1
104.3855,19.1
104.3915,598.8
104.3977,421.9
104.3984,494.2
104.407,174.5
104.4127,148
104.4482,570.9
104.4592,385.7
104.4828,150.5
104.5143,302.4
104.5342,627.9
104.5415,155.1
104.5435,144.1
104.5558,125.1
104.5581,168.2
104.5608,236.6
104.6929,194.8
104.6976,333.2
104.7078,146.4
104.7857,576
104.8033,638.1
104.8267,409.4
104.8471,127.3
104.8838,179
104.948,83
104.9513,742.8
104.9587,169.1
104.9632,6398.8
104.965,371.2
104.9817,169.3
104.9874,259.9
104.9921,1528.6
105.008,17.7
105.0408,118.7
105.0415,272.7
105.0446,28931.9
105.0694,455
105.0951,542.2
105.096,452.7
105.1102,13844.1
105.1827,264.7
105.1859,293.5
105.2087,782.2
105.2126,560.4
105.2315,610.8
105.2746,153.2
105.278,496.4
105.3121,169.5
105.3292,663.7
105.3483,22
105.3625,421.8
105.4207,28.8
105.4745,469.5
105.4943,187.7
105.5228,552.4
105.5376,292.6
105.6334,130.8
105.6413,18.2
105.6767,23.7
105.6965,567.7
105.6971,544.9
105.7072,301
105.713,26.1
105.7204,495.1
105.7232,135.1
105.724,227.9
105.7813,194.7
105.8085,164.7
105.8116,142.5
105.813,27.8
105.8167,284.8
105.8408,156.8
105.8447,621.8
105.8507,151.2
105.9363,491.7
105.9387,16.5
105.9585,415.9
105.9636,23.8
106.0212,29.2
106.0478,1038.6
106.059,346.5
106.0649,105.2
106.0871,265.4
106.1523,817.2
106.1557,373
106.1675,548.5
106.1814,702.4
106.1916,250.7
106.2292,230.5
106.2352,467.5
106.2405,18.8
106.2439,136.9
106.2649,584.3
106.286,202
106.2952,168.9
106.3441,201.5
106.4036,335.8
106.4166,505.3
106.4614,404.4
106.4891,503.2
106.496,298.1
106.5194,301
106.539,35.1
106.5576,270.5
106.5614,319.6
106.5712,943.7
106.5882,530.5
106.5921,111.5
106.6422,111.2
106.6827,487.5
106.6934,359.2
106.698,308.1
106.7053,574.3
106.7754,738.3
106.7884,183.8
106.8043,910.5
106.8111,28.6
106.8555,23.1
106.8738,282.9
106.8859,295.6
106.9296,111.5
106.9423,260.7
106.9436,18.9
106.9504,3493.1
106.9636,40.7
106.9789,126.6
106.9917,20.7
106.9934,133.4
107.0037,174.3
107.0342,157.5
107.0398,32.6
107.049,457.6
107.061,335.2
107.0853,75.6
107.0936,174
107.1407,570.1
107.1724,172.6
107.2307,20.1
107.2693,313.9
107.2712,599.6
107.2883,589.5
107.2999,207
107.3376,811.2
107.3425,608.7
107.3531,115.5
107.3762,20.6
107.4301,458.6
107.4478,17.4
107.4494,224.8
107.4768,535.8
107.5563,21
107.643,137.7
107.6726,106.1
107.6825,509.7
107.6845,129
107.6927,308.6
107.6936,264
107.7415,672.3
107.7791,27.4
107.8058,128
107.8283,600.7
107.8312,317.4
107.8405,325.6
107.8593,434.9
107.8848,513.3
107.9178,298.6
107.9371,18
107.9573,396.6
107.9628,543.7
107.9803,480.2
108.0062,201.3
108.0186,17
108.0487,362.8
108.0653,154.6
108.0698,149.6
108.0806,283.6
108.186,296.5
108.2497,474.9
108.2574,164.9
108.2771,286.7
108.2901,26.8
108.3084,182.3
108.3385,237.4
108.3567,18
108.3783,396.4
108.3835,30.9
108.3874,246.3
108.4126,202.9
108.4304,319.5
108.4484,18.9
108.4587,285.7
108.4668,148.6
108.5058,356.4
108.5308,100.9
108.5682,475.9
108.5968,100.5
108.6086,278.5
108.6439,819.6
108.6832,876.2
108.7391,763.3
108.7457,22.7
108.7769,335.6
108.868,182.1
108.9018,494
108.9218,18.5
108.9474,124.7
108.9501,138.2
108.9582,190.3
108.9596,18.1
109.0105,18.5
109.0198,111.5
109.0395,20.6
109.0646,50537.1
109.0775,526.1
109.0824,116.1
109.1011,159.5
109.115,213.5
109.1562,30.9
109.2161,30.1
109.2256,116.3
109.2285,469.5
109.2549,370.4
109.2603,629.9
109.2971,15.7
109.3565,734.6
109.3723,274.9
109.4507,514.6
109.4563,220.3
109.4789,227.5
109.4801,279
109.486,240.2
109.5672,194.2
109.5728,262.1
109.6341,15.9
109.6375,275
109.7032,292.2
109.726,358.6
109.7322,332
109.8036,186.2
109.8166,1031.3
109.8472,19.3
109.8949,172.5
109.911,416.6
109.9117,500.4
109.9952,144.4
110.0528,560.6
110.0598,20.4
110.0616,562.1
110.068,1570.9
110.0711,799.9
110.0974,136.8
110.1341,16
110.1355,540.4
110.1533,374.1
110.1559,181.8
110.1606,155.4
110.1776,21.8
110.2362,129.8
110.3559,177.9
110.3945,543.6
110.4759,788.2
110.4829,281.5
110.5306,429.7
110.532,296.6
110.5383,136.2
110.5615,710.8
110.566,340.7
110.6245,172.1
110.6319,327.8
110.6528,22.1
110.7246,16
110.7304,536.5
110.7315,111.4
110.7711,179.7
110.7934,325
110.8244,381.7
110.9352,17.6
110.9471,18.2
110.9568,238.7
110.9611,435.1
110.9964,226.2
110.9998,21.4
111.0211,17.7
111.0232,114
111.0449,477.2
111.0629,562.3
111.0712,21.8
111.1226,488.5
111.1259,132.6
111.1383,278
111.1922,742.1
111.2202,340.7
111.282,17.1
111.2838,117.6
111.3604,200.5
111.3659,339
111.4307,300.7
111.4319,208.7
111.4931,109.1
111.5317,311.2
111.5857,358.2
111.6235,546.5
111.6334,106.7
111.6445,122.8
111.6736,259
111.7088,523.4
111.7269,148.8
111.7957,165.1
111.8378,212.2
111.849,264.4
111.8631,218.8
111.9024,135.7
111.9544,492.7
111.9616,391.8
111.9672,303.6
111.9721,241
111.9907,179.5
112.0083,217.5
112.054,169.6
112.068,20.8
112.0994,25.8
112.1018,18.1
112.1035,18
112.1242,503.5
112.1309,17.2
112.1362,669.2
112.1444,206
112.165,379.8
112.1811,98.3
112.2145,179.2
112.233,284.3
112.2469,319.5
112.2611,445.6
112.2692,358.5
112.2956,18.5
112.3249,788.8
112.3394,351.3
112.373,195.9
112.3917,16.7
112.398,172.1
112.4063,138.7
112.4351,166.9
112.4847,619.2
112.562,207.9
112.5803,132
112.6035,376.7
112.639,324
112.6706,571.6
112.6746,19.3
112.6844,325.2
112.6882,18.8
112.7233,616.7
112.7352,203.8
112.7555,547.9
112.8019,151.2
112.811,299.1
112.8796,155.8
112.8956,451557.5
112.909,368.9
112.9193,361.3
112.9335,349
112.9726,170.5
112.9916,837
113.0089,551.6
113.0499,190.8
113.0559,1050
113.0909,277.7
113.0927,210.7
113.1297,16.1
113.1306,18.1
113.1414,184.4
113.1823,160.8
113.1961,21
113.2,142.2
113.2804,534
113.347,142.2
113.3724,677.9
113.3743,208.2
113.3809,521.3
113.3912,225.1
113.4555,335.7
113.4616,111.5
113.497,17.8
113.5654,146.2
113.6169,624.4
113.6658,262.8
113.6907,109.7
113.7003,200.8
113.7015,279.5
113.7098,189.4
113.733,720.7
113.761,376.9
113.7633,174.8
113.7672,164.1
113.7701,18
113.7809,576
113.8274,176.6
113.8675,162.5
113.9006,618.6
113.9147,515.7
113.9507,876.1
113.952,607.5
113.9847,659.8
113.9893,321.3
113.9975,277.3
114.0238,263.5
114.0318,18.4
114.0406,139
114.0548,24796.5
114.0584,487.4
114.066,513.2
114.0909,19.8
114.0946,124.1
114.1091,366.1
114.1788,25.3
114.2141,109.5
114.3205,628.3
114.328,134.7
114.3726,314.6
114.4397,165.4
114.4547,202.3
114.459,343.4
114.481,522.2
114.4867,217.4
114.4979,345.6
114.5069,95.6
114.5158,265.2
114.5198,380.4
114.5667,552.3
114.5891,385
114.5935,217.4
114.6512,147.8
114.7187,139.2
114.7241,28.5
114.7403,670.7
114.7795,183.7
114.7894,628.3
114.8473,202.7
114.8629,415.6
114.8893,876.6
114.8927,142082.4
114.9398,662.5
114.9481,519.7
114.9676,651.5
114.9866,195.2
115.0132,246.1
115.0363,22.2
115.046,258.8
115.0621,669
115.1481,304.8
115.1691,412.8
115.1828,428.4
115.2087,583.3
115.2404,18
115.3615,640.6
115.4539,188.4
115.4544,176.7
115.46,280.4
115.4738,154.9
115.4784,165.2
115.4871,616.4
115.5022,517
115.5158,431.2
115.5224,171.8
115.5472,922.2
115.5779,127
115.584,256
115.5982,27.8
115.6082,144.7
115.6179,544.9
115.6308,484.9
115.6498,439.2
115.6751,165.2
115.6778,177.4
115.6832,135.2
115.6956,203.8
115.7066,168.2
115.7651,314.1
115.7962,201.1
115.8047,515.6
115.8111,101.1
115.8626,468.4
115.8721,586.1
115.9188,181.7
115.922,117.4
115.9684,336.1
115.9792,786.2
115.9966,606.5
116.0704,2831.6
116.1277,292.9
116.1401,208.4
116.1905,19.9
116.2058,18.6
116.2133,495.1
116.2332,721
116.235,386.1
116.2388,413.2
116.2576,202.5
116.2853,152.6
116.2907,129.4
116.3241,16.6
116.3294,19
116.3452,202.2
116.3606,861.7
116.3624,284.6
116.3703,365.5
116.371,392.3
116.4111,149.5
116.4128,627.7
116.4266,174.5
116.4295,822.3
116.4301,906.9
116.4306,732.6
116.4467,719.9
116.4678,194.1
116.4818,316.6
116.4878,309.3
116.5175,518.2
116.5256,470.7
116.5435,551.2
116.6153,405.4
116.6318,223.9
116.7155,18.6
116.7352,244.6
116.7772,17.2
116.7803,270.2
116.787,184.1
116.8415,198
116.8664,567.8
116.8908,15649.6
116.9607,348.4
116.9632,273.3
116.9842,26.6
116.9858,163.6
117.0128,488.2
117.0287,407
117.0764,266.7
117.085,642.6
117.1668,156.3
117.1807,19.4
117.2235,308.9
117.2588,289.8
117.2619,265.5
117.2831,342
117.2838,335.7
117.3173,695.6
117.3514,430.1
117.4303,300.3
117.4795,159.2
117.4943,19.4
117.5857,148.9
117.593,162.6
117.5949,18.4
117.6301,280.2
117.6687,243.2
117.6824,16.8
117.6933,191.1
117.707,28.5
117.71,29.7
117.7238,159.8
117.7265,19.8
117.7389,129.8
117.7417,570.3
117.7441,225.7
117.7599,254.5
117.7761,31.6
117.8775,384.4
117.9119,207.5
117.951,144.9
117.9614,191.7
117.9713,21
117.9952,349.3
118.0141,268.9
118.0389,149.6
118.0885,136.1
118.0901,326.9
118.1756,20.6
118.2026,284.2
118.2301,142.4
118.2453,360.1
118.2514,170.8
118.2564,846.7
118.2632,297
118.2726,16.1
118.4428,329.9
118.447,451.6
118.478,17.3
118.528,21.3
118.5602,18
118.5691,343.3
118.596,21.6
118.6314,192.9
118.6436,236.3
118.6738,607.5
118.6843,109.7
118.8129,898.7
118.8302,17.4
118.8843,715.7
118.9427,1005.3
118.9789,908.6
119.0032,145.2
119.0046,18.4
119.0115,588.9
119.0128,171.9
119.0487,644.1
119.0637,391.2
119.096,741
119.1,390.6
119.2489,263.8
119.2542,496.3
119.3072,344.8
119.4424,247.8
119.4658,543.5
119.5091,528.8
119.5301,19.9
119.5416,559
119.55,404.6
119.7013,316.7
119.8172,143.5
119.9215,136.2
119.9628,301.3
119.9786,171.6
120.003,1605.4
120.0249,19.9
120.0523,254
120.0665,249.3
120.0806,17608.8
120.1365,183.1
120.1793,480.1
120.1807,242.2
120.1844,151.7
120.193,20.8
120.2271,680.3
120.3269,175.5
120.3516,21.5
120.3591,19
120.3799,137.1
120.4009,984.3
120.4417,20.1
120.4664,193.3
120.469,257.9
120.4957,19.1
120.5051,334.4
120.5491,498.4
120.5518,209.6
120.5558,688.5
120.6356,316.8
120.6432,230.4
120.6452,18.8
120.6716,158.5
120.7087,628.6
120.7274,308
120.7593,253.1
120.78,21.2
120.7889,323.2
120.8092,196.1
120.8122,228.6
120.864,430.1
120.8711,437.8
120.8958,173.7
120.9022,308.9
120.9454,118.9
120.957,291.9
120.9587,361.6
120.9793,34.3
120.9807,68.6
121.0075,160.3
121.0282,458
121.0395,104.3
121.101,21.6
121.1116,139.9
121.1209,172.3
121.2223,622.5
121.2791,282.7
121.3145,148.2
121.3526,396.2
121.4028,124.1
121.4115,138.7
121.4274,212.6
121.4398,456.2
121.5757,667.3
121.6099,149.1
121.6656,193.6
121.6685,19.1
121.6804,165.5
121.8114,294.3
121.895,323.9
121.9026,359.1
121.9253,108.4
121.9679,138.8
121.9738,248.9
121.9995,209.1
122.011,16.8
122.0303,394
122.0805,285.6
122.0953,361.2
122.1114,420.1
122.1149,735
122.1329,369
122.1405,173.6
122.1436,532.6
122.201,18.3
122.2037,186.6
122.2364,324.5
122.3195,925.6
122.3526,920.9
122.3694,609.3
122.4504,298.2
122.4896,168
122.5008,672.7
122.5166,359.5
122.5257,152.3
122.5353,19.1
122.5554,386.1
122.578,204.7
122.5937,750.8
122.659,262.8
122.6755,129.4
122.6787,576.8
122.7098,564.1
122.7313,201.9
122.8164,200.7
122.8738,387
122.9002,129.4
122.9102,17.1
122.9244,22703.8
122.9293,75.7
122.9582,172.8
122.9627,105.4
122.9738,277
122.9798,540.9
122.9951,128.1
123.0118,295.4
123.0137,863.9
123.0291,17.3
123.0339,330.7
123.0412,321.1
123.0462,487.3
123.0625,520
123.0629,455.9
123.0805,41.9
123.1467,363.1
123.1524,1065.6
123.1549,480.3
123.1644,312.1
123.2243,783.5
123.2655,345.7
123.2985,204.8
123.3165,307.7
123.3183,204.2
123.3648,191.4
123.3735,536.1
123.3837,124.4
123.3883,129.5
123.3925,189.2
123.4968,138.1
123.5116,220.1
123.5801,270.4
123.6087,153.8
123.6918,17.8
123.6989,575.9
123.7096,176.5
123.8064,130.7
123.8199,18.8
123.9446,204.8
123.9546,431.6
123.9742,536.9
124.0071,494.9
124.0267,185.2
124.0317,831.5
124.0367,207.3
124.0743,41.1
124.0971,342.7
124.1068,203.8
124.1665,18.3
124.1784,211.8
124.1956,121.7
124.2162,218.8
124.2191,193.8
124.2321,20.9
124.3087,899.4
124.3121,449.6
124.3749,155.5
124.3936,108.4
124.3989,277.7
124.4042,480.7
124.4108,184.1
124.4215,298.7
124.4469,298.3
124.471,803.8
124.5052,409.2
124.5598,487.6
124.6627,282
124.7092,473.8
124.7226,151
124.7476,140.3
124.7576,486.1
124.7582,514.4
124.7587,547.2
124.7614,190.1
124.7952,19
124.8326,366
124.8474,140.8
124.8943,135.2
124.8959,416.1
124.9009,139
124.9067,505.9
124.9169,622.3
124.9226,1130.9
124.9404,200
124.9466,142.8
124.985,618.8
124.9872,164.1
124.9876,168.2
124.9882,195
124.9955,190.4
124.9997,3400.1
125.0055,1100.1
125.0316,409.1
125.0359,161.7
125.0388,87.3
125.0521,274.1
125.0597,30.7
125.0622,403.7
125.079,17.6
125.0904,211.6
125.1102,119.9
125.1514,489
125.1548,437.3
125.1787,20.1
125.2242,219.6
125.2279,691.5
125.3086,626.2
125.3366,136.3
125.368,120.5
125.3886,555
125.4866,201.2
125.4914,392.8
125.6068,244.2
125.6362,394.5
125.6431,17.2
125.6853,274.8
125.694,18
125.7386,164.9
125.8144,132.7
125.8578,424.3
125.8762,494.7
125.9614,151.1
125.9867,18.1
125.9999,171.7
126.008,680.2
126.016,267.1
126.0535,818.9
126.0564,835.6
126.0774,16
126.1261,118.8
126.1896,482.5
126.1971,284
126.2096,299.3
126.2404,235.7
126.2628,117.9
126.2956,376.9
126.342,15.9
126.3921,153.4
126.4201,296.9
126.5055,129.8
126.5783,137.4
126.5902,176.8
126.6021,479.1
126.6225,159.9
126.6369,169.9
126.6499,147.2
126.7501,645.9
126.8157,222.6
126.8221,134.6
126.903,602.9
126.9544,300.1
126.9749,240.1
126.9821,199.1
127.0477,243.9
127.1129,271.6
127.1226,596.7
127.1442,148.3
127.1843,18.9
127.1896,648.5
127.2319,508.6
127.263,225.6
127.2741,753
127.2763,270.8
127.329,174.3
127.3569,710.8
127.3612,481
127.3904,427.7
127.3908,362.9
127.4842,237.6
127.5963,912.9
127.6056,187
127.638,31.9
127.6404,678.2
127.6752,17.8
127.6829,231.4
127.697,186.5
127.7577,402.7
127.7798,18.7
127.8123,479.5
127.8142,295
127.8288,1051.7
127.8715,148.8
127.8917,371.4
127.9087,274.3
127.9403,400.4
127.9479,492.1
127.9629,17.9
127.976,483.5
128.0017,27.7
128.0155,27.2
128.0255,556
128.0622,19.8
128.1173,289.3
128.1177,359.1
128.1183,197.5
128.1332,123.3
128.1647,590.5
128.1852,416.5
128.2227,250
128.2324,18.2
128.278,515.1
128.2887,606.5
128.3034,179.1
128.437,265.4
128.4595,669.1
128.4823,128.2
128.4829,134.9
128.5231,613.2
128.527,207.8
128.5301,329.1
128.5441,202
128.5611,18.4
128.5902,636.4
128.6173,435.2
128.7137,21.2
128.7168,143.8
128.7442,1027.7
128.7482,575.4
128.7487,657.9
128.7496,575.3
128.7784,533.4
128.7829,470.7
128.7983,616.8
128.8011,403.5
128.8387,191.3
128.9637,306.5
129,671
129.0086,589.9
129.0156,127
129.0658,591.1
129.0995,448.5
129.1022,483
129.1082,134.9
129.2605,281.9
129.2836,145.8
129.3044,497.6
129.3688,532.2
129.4001,346.9
129.4408,363.5
129.4831,125.3
129.5245,19
129.5286,197.7
129.5478,344.5
129.6101,114.9
129.618,778.1
129.6215,264.3
129.6423,154
129.6647,498.7
129.7172,963.8
129.7249,869.5
129.73,605.4
129.7713,201.3
129.8098,563.9
129.8232,23.4
129.8568,31.7
129.9585,294.9
129.9694,109.1
129.9744,197.4
129.9948,189.9
130.0388,150.4
130.0497,11295.3
130.1094,216.7
130.1284,19.1
130.2249,208.4
130.24,640.6
130.2566,18.1
130.268,680.4
130.2702,629.4
130.2887,492.7
130.317,285.2
130.3731,114.2
130.4261,277.8
130.4602,156.5
130.4884,198.8
130.5851,408.6
130.6539,178.4
130.6649,21.1
130.6813,137
130.6937,303.1
130.7131,146.2
130.7191,279.9
130.7552,241.5
130.7582,178
130.7705,425.1
130.7884,496.6
130.7887,488.3
130.9263,319.4
130.9372,561.8
130.9507,147.4
130.9789,119.9
131,121.6
131.005,331.7
131.0202,144.2
131.038,650.4
131.0431,420.3
131.1202,441.9
131.1337,30.3
131.1363,767
131.1442,17.9
131.1579,309.9
131.1667,177.6
131.2289,28.7
131.3842,29.7
131.4531,19.8
131.4992,122.6
131.5102,136.9
131.526,586.5
131.6372,466.6
131.6422,196.7
131.6582,772.9
131.6892,931.3
131.6971,127.2
131.7162,143.6
131.7517,329.5
131.8194,131.8
131.8271,256.1
131.8393,247.9
131.8578,133.3
131.8727,182.7
131.8953,143.4
131.9033,512.4
131.9105,150.5
131.9608,18.7
132.0031,33535.4
132.0118,596.3
132.0205,124.2
132.0332,132.2
132.0654,40641.1
132.1466,259.8
132.1619,197.2
132.1694,355.9
132.1712,433.8
132.2506,401.9
132.3061,610.2
132.3228,297
132.4064,20.2
132.4077,191
132.4156,420.9
132.4548,278.9
132.493,18.4
132.5589,262.2
132.5624,17.9
132.5739,711.9
132.6415,173.3
132.655,438.3
132.6627,347.5
132.695,219.7
132.7355,117.3
132.8053,111.9
132.829,286.9
132.8486,526.2
132.9025,22.1
132.9581,1194
132.9695,31.4
132.9871,905.8
133.0216,169.3
133.048,168.2
133.0648,22.5
133.0689,344
133.0732,192.7
133.0918,493.5
133.097,17302.8
133.1066,423.5
133.1935,412.2
133.1974,288.8
133.2482,163.9
133.2508,131.9
133.2585,593.9
133.3089,392.9
133.3171,308.9
133.3659,155
133.3681,178
133.3795,192.5
133.4419,446.4
133.5234,238.8
133.5639,18.3
133.6074,109.4
133.621,152.2
133.6487,104.6
133.6872,175.9
133.706,18.4
133.7772,350.8
133.8799,556.9
133.9287,19.8
133.9776,294.9
133.9813,23.8
133.9884,209.5
134.0187,10307.9
134.044,249.2
134.0977,141.6
134.1378,506.8
134.1407,164
134.1449,170
134.2006,333.1
134.233,467.1
134.2381,469.6
134.2828,20.4
134.3419,440.9
134.4105,293.5
134.4316,191
134.4874,184.5
134.49,31.2
134.5063,720.1
134.5701,342.1
134.5917,589.7
134.6004,239.3
134.6137,181.3
134.6527,178.7
134.7123,337.9
134.7135,573.5
134.8018,845
134.8212,552.9
134.8615,17.8
134.915,20.5
134.9407,159.2
134.9598,669.2
134.9739,452.1
134.9769,16.8
134.9891,261.9
134.9964,21.8
135.0028,66959.6
135.0164,527.3
135.0261,19.6
135.0491,22
135.0616,159.8
135.1011,180.7
135.1167,56.7
135.1569,455.8
135.1666,558
135.1718,36.8
135.188,172
135.1916,314.8
135.1968,476.2
135.2103,175.6
135.2116,328.2
135.2327,482.4
135.3002,543.6
135.4201,442.4
135.4407,1057.9
135.4511,555.4
135.5553,49.3
135.637,816
135.6513,133.7
135.6833,204.9
135.6988,19.3
135.7419,320.4
135.7468,284.5
135.8649,252.6
135.9477,592.4
135.977,1503.9
135.9795,338.6
135.9816,20
136.0481,6644.2
136.0513,322.8
136.0595,641
136.0616,49.5
136.0756,13901
136.0795,144.3
136.1192,20.2
136.1278,324.1
136.1347,178.2
136.2284,582.9
136.2656,125.8
136.2878,252.6
136.2965,106.6
136.3037,686.9
136.3476,329.3
136.3891,151.7
136.407,504.1
136.4531,180.8
136.4804,336.2
136.4833,107
136.5107,394.5
136.5323,463.2
136.5363,356.8
136.5395,851.2
136.6077,96.9
136.6212,20.2
136.626,769.6
136.6494,235.5
136.6633,122.2
136.6716,534.5
136.6829,404.6
136.7525,18.8
136.8121,134.5
136.8237,162.3
136.8318,395.8
136.8652,775.3
136.9066,248.1
136.9474,20.4
136.9531,187.2
136.9735,434.5
136.9893,18.8
136.9994,625.1
137.0049,22.8
137.009,272.1
137.0112,626.4
137.1047,558
137.1323,271.2
137.1485,196.4
137.251,223
137.2661,291.6
137.275,30.3
137.3083,312.6
137.3228,869.7
137.3312,18.9
137.3752,349
137.4202,19.3
137.4297,119.7
137.4481,331.8
137.4537,185
137.4835,127.5
137.4981,139.4
137.5039,144.9
137.5173,124.5
137.5919,285.5
137.6159,125.6
137.627,385.9
137.631,344.3
137.7022,356.9
137.8061,527.7
137.8424,180
137.8681,317.9
137.8926,105.3
137.9227,199.3
137.9449,438.2
137.9797,22.7
137.984,20
137.9854,879.5
138.0156,159.3
138.0525,3503.7
138.0638,178.4
138.0661,114.9
138.0712,577
138.0821,387
138.2103,466.2
138.2172,159.3
138.2205,681.3
138.2882,211.9
138.3551,449.8
138.416,387.3
138.4359,17.3
138.5071,544.3
138.558,413.6
138.6408,30.5
138.6609,17
138.6998,22
138.7639,754.8
138.7775,131.3
138.8554,241
138.9064,3185.5
138.9352,214.7
139.0052,269.3
139.0226,398.1
139.059,16.9
139.077,197
139.0965,607.8
139.1265,182
139.2173,418.1
139.2238,131
139.2366,498.6
139.2789,22.1
139.4511,639.7
139.5446,322.7
139.5663,17.9
139.5685,384
139.6462,305.6
139.6538,391.5
139.6722,125.7
139.7278,416.2
139.761,18.6
139.7936,816.7
139.796,210.6
139.8146,446.2
139.8264,343.8
139.8342,363.3
139.9151,288.6
139.9203,536
139.9238,359.3
139.9479,241.9
139.9594,531.6
139.9991,226.4
140.0164,4631.3
140.0681,1310
140.0985,229.9
140.1075,459.5
140.1253,28.4
140.1445,132
140.1466,355
140.1976,525.1
140.2591,22.1
140.2744,735.3
140.3011,21.3
140.3229,466.1
140.3288,146.7
140.3307,119.6
140.4073,177.1
140.4154,241.6
140.436,407.6
140.4604,294.6
140.5742,269.1
140.6434,18.5
140.6501,159
140.7505,302.3
140.7614,346.5
140.8496,634.5
140.8848,154.4
140.9034,580.4
140.9391,437.7
140.9568,142.4
141.0004,13473.6
141.0205,783.1
141.0317,1066.9
141.0646,526.7
141.0846,418.1
141.0908,152.1
141.1475,19.4
141.1766,295.2
141.2342,315.9
141.2486,178.3
141.277,19.5
141.2824,500.2
141.2967,124.1
141.3672,978.5
141.3946,237.7
141.4224,103.1
141.4608,451
141.4768,255.4
141.4829,123.3
141.5214,231
141.5303,117.7
141.5686,128.1
141.6301,106.4
141.6319,107.8
141.6566,401.5
141.7125,165.8
141.7377,186.3
141.7474,154.8
141.7541,653.5
141.8334,288.9
141.84,552
141.8442,260.8
141.9568,384.1
141.9949,332.5
142.0038,342.9
142.0123,49.3
142.0172,613.9
142.0783,21.3
142.1365,423
142.1397,303.8
142.1548,17.5
142.2417,579.4
142.2562,36.5
142.2699,179.4
142.273,199.1
142.328,100.6
142.4456,523.9
142.473,150.9
142.4808,729.4
142.5084,171.9
142.5241,514.2
142.5277,169.8
142.531,514.6
142.5472,118
142.5531,192.7
142.572,17.9
142.5919,281.2
142.6715,525.3
142.6988,163.9
142.7225,185.8
142.7309,150.6
142.7367,783.1
142.8173,16.9
142.8456,20.9
142.8679,178.4
142.8738,722.2
142.9282,17.1
142.9386,529.6
142.9466,385.8
142.9472,450.5
142.9477,411.5
142.9962,250.2
143.0189,1773.8
143.0441,223.1
143.0535,154
143.0813,242.6
143.1182,298.1
143.1939,221.7
143.2238,636.8
143.3074,313.3
143.3568,201
143.3665,346.8
143.4318,24.3
143.4503,279.4
143.4933,135.9
143.5206,359.3
143.5222,145.1
143.5424,126.9
143.5744,273.8
143.5998,138.2
143.6163,414.7
143.6335,418.1
143.6659,902.2
143.6832,374.5
143.6953,114.5
143.7283,319.4
143.7612,110.1
143.8227,334.5
143.859,609.9
143.8962,337.5
144.0105,1182.9
144.0715,16.5
144.1082,432.5
144.1319,378.7
144.1625,104.1
144.2129,146.8
144.2302,511.8
144.261,353.6
144.2882,120.4
144.3398,29.8
144.3418,166.6
144.4074,285.1
144.421,169.9
144.4532,191.9
144.476,770.3
144.484,135.2
144.5122,622
144.5179,601
144.5808,123.9
144.6055,35.5
144.6629,161
144.6826,164
144.7162,138.2
144.7201,802.7
144.7362,660.2
144.8063,513.2
144.8272,133.9
144.8376,167.7
144.8406,286.4
144.8566,113.4
144.9221,199
144.9581,22.5
144.9828,133.6
145.0076,19.8
145.011,24.1
145.0157,45.2
145.0496,162.7
145.0717,174.1
145.1876,335.8
145.2108,538
145.246,313.1
145.2624,17.6
145.2696,393.2
145.3599,19
145.3802,190.8
145.514,620
145.5295,412.2
145.542,189.8
145.5975,174.5
145.6265,559.7
145.6831,17.9
145.7007,113.8
145.7154,19.5
145.7212,334.2
145.81,113
145.8659,20.1
145.8827,475.1
145.8954,285.6
145.9003,140.4
145.9285,730.5
145.9308,111.6
145.9564,157.7
145.9801,262.9
145.9938,337.2
146.0021,641.2
146.0124,4215
146.0188,19272.8
146.0263,143.8
146.059,176.8
146.0801,174.6
146.1598,468.7
146.2636,252.4
146.3086,200.2
146.3247,412.8
146.3465,1316.7
146.3558,407.3
146.3805,247.4
146.4375,225.2
146.4621,213.9
146.491,315.5
146.5228,133.6
146.5321,738.6
146.5502,419.6
146.5526,25.9
146.6719,263.3
146.6764,425.7
146.721,26.5
146.7388,152.8
146.798,316.5
146.859,257.9
146.8677,235.2
146.8955,186.8
146.9051,86.4
146.9081,18.4
146.9116,159.1
146.9745,840.7
146.9817,138654.8
146.9848,429.1
147.0335,20.4
147.0763,82097.9
147.0952,230.7
147.1127,38923.5
147.1951,335.5
147.2229,289
147.2356,358.7
147.2476,349.7
147.3221,947.5
147.3421,433.7
147.3425,457.6
147.367,294
147.4509,143.4
147.4583,224.3
147.5206,172.1
147.5478,234
147.5901,18.4
147.6226,138.9
147.6282,359.1
147.6306,20.5
147.6693,20.4
147.6815,551.5
147.6948,16.9
147.7011,983.2
147.706,546.5
147.7553,481.8
147.7589,525.2
147.7668,146.3
147.849,129.6
147.9213,16.6
147.9267,181.6
147.977,519.5
147.9851,367.1
148.0181,235.6
148.0293,869.5
148.0853,118.7
148.0932,400.5
148.0972,320.5
148.112,60
148.1337,193.7
148.3153,465.6
148.3591,147.3
148.4193,705
148.426,157.8
148.5321,3889.4
148.6609,246.3
148.7402,19.6
148.745,367
148.7867,156.6
148.7999,18.2
148.8307,179.4
148.9611,2695.7
148.9886,204.9
149.0184,9597
149.0233,2960.3
149.0293,552.2
149.0448,346.8
149.0901,381.1
149.0974,108.3
149.1324,23.3
149.1403,352.9
149.1542,492.6
149.1616,210.7
149.319,340.7
149.3212,170.4
149.3477,625.7
149.3672,908.2
149.4176,303.9
149.4556,195.9
149.4663,464.6
149.478,389.7
149.5145,20.7
149.5664,137.7
149.6203,107.4
149.7094,304.4
149.7132,145.4
149.7198,332.6
149.7232,22.3
149.7439,291.5
149.8092,406.6
149.8947,28.4
149.9427,684.5
149.9496,379.1
149.9761,24
149.9872,26.1
149.9928,10638.6
150.008,1445.3
150.0137,4197.8
150.0267,75.9
150.0283,184.2
150.0955,237.5
150.149,514.1
150.155,338.1
150.1657,138.9
150.2524,22.6
150.2913,18.8
150.295,129.3
150.3232,18.2
150.3312,137.4
150.3367,130.3
150.3383,18.6
150.3972,17.9
150.4581,128.8
150.517,160.9
150.5591,158.6
150.5881,27.9
150.6641,547.4
150.6795,163.3
150.7609,360.7
150.7633,144.9
150.7728,304.4
150.7863,211.1
150.8071,101.3
150.8091,680
150.8171,528
150.839,18.3
150.8684,295.2
150.8899,151.7
150.9004,245.1
150.9274,588.2
150.9687,67.9
150.9768,47953.7
150.984,6885.7
151.0147,177.2
151.0204,359.1
151.0477,3129.6
151.0588,122.5
151.0697,160.7
151.0824,119.4
151.0876,546.6
151.0982,323.2
151.1016,193.1
151.1275,33.3
151.144,735.7
151.1626,265.1
151.2342,145
151.2477,822.1
151.3396,573.7
151.3414,284.4
151.4101,18.5
151.4177,390.2
151.4195,279.1
151.4308,289.4
151.4522,380.2
151.5797,19.6
151.6094,362.3
151.6115,634.9
151.7207,273.3
151.7359,277.7
151.7431,562.1
151.7599,309.5
151.8577,18.5
151.9631,16.4
151.9843,46.7
151.9873,191.3
151.9921,18.5
152.0086,919.4
152.0221,9190.4
152.0317,2256.9
152.052,208.7
152.1116,434
152.1216,20.5
152.1431,231.1
152.1826,117.9
152.2638,360.2
152.286,123.4
152.2939,308.3
152.3218,306.2
152.3452,287.3
152.3825,295.5
152.393,170.8
152.4087,647.6
152.4185,694
152.4205,136.3
152.4695,19.3
152.4818,263.6
152.484,192.9
152.5206,146.3
152.5269,18.6
152.5894,203
152.6613,863.7
152.703,322.1
152.7378,18.9
152.7514,617.4
152.7533,946.4
152.7681,585
152.8609,200.1
152.8788,152.9
152.8857,132
152.9456,569.7
152.9551,311.1
152.9751,1716.4
152.9795,108.3
152.9846,51.7
152.9996,20.9
153.0031,213.9
153.0161,196.1
153.0254,423.2
153.1197,126.1
153.2003,278.1
153.2127,132.5
153.2404,377.1
153.2918,16.7
153.4073,179.2
153.4171,158.9
153.4801,332.4
153.5199,18.6
153.5338,217.7
153.5427,187.6
153.5512,21.3
153.5661,165.3
153.5743,213.4
153.586,107.7
153.5887,578.4
153.6144,581.9
153.6191,140.4
153.641,563
153.7099,190.5
153.7304,281.8
153.7629,196.8
153.7804,298.7
153.8734,502.1
153.8829,231.4
153.9436,29.1
153.9598,229.2
153.9712,392.1
154.011,365.9
154.0265,923
154.053,178.7
154.0658,728
154.0799,124.9
154.0895,859.2
154.1132,18.5
154.128,140.9
154.1365,367.1
154.2864,32.4
154.357,140.7
154.3639,21.3
154.3836,823.2
154.4548,797.8
154.4631,203.8
154.4675,164.3
154.4706,1078.4
154.473,240.8
154.4973,643.5
154.5245,867.1
154.5366,593.3
154.554,603.8
154.6049,406.2
154.6194,143.8
154.6287,286.8
154.7484,297.7
154.8198,18.8
154.8264,16.9
154.8343,142.9
154.8803,459.6
154.9074,27.4
154.9351,174
154.969,404.9
154.9799,23.6
155.0427,1639.6
155.0492,472.2
155.0539,3933
155.0942,460.7
155.2137,19
155.265,19.4
155.2671,407.5
155.3561,140.2
155.3745,415.8
155.3914,329.7
155.4777,155
155.4807,185.6
155.5084,345.9
155.5447,548.4
155.5787,237.1
155.6063,17.9
155.6601,176.1
155.6734,116.8
155.7413,198.7
155.7956,553.2
155.8125,105
155.8694,192.5
155.9253,203.2
155.9382,464.1
155.9867,16.9
156.0421,1004.3
156.0573,32.2
156.0767,74906.7
156.0831,339.1
156.1192,150.6
156.1565,362.8
156.2058,115.6
156.2623,17.3
156.4109,366.7
156.4561,352.2
156.4919,386.2
156.5426,459.5
156.6088,549.1
156.6273,39.1
156.7583,814
156.7825,1212.6
156.813,146
156.8175,115.7
156.8607,327.1
156.9242,260.4
156.9525,121.3
157.0001,31
157.0058,83.1
157.0269,21.3
157.0654,490.6
157.08,444.1
157.0972,25
157.101,17.6
157.1312,605.7
157.1472,928.9
157.1991,640.6
157.2365,277.3
157.2437,18.8
157.263,254.5
157.2757,146.2
157.3256,186.3
157.3525,345.9
157.3857,588.5
157.403,299.6
157.4234,239.5
157.4839,236
157.5573,183.9
157.5603,19.4
157.5751,449.5
157.578,206.6
157.6095,360.2
157.7417,653.6
157.7778,153.7
157.7873,135.1
157.7954,134.2
157.8116,19.6
157.9281,122.9
157.9882,133
157.998,203.8
158.0123,672.5
158.0271,2269
158.1138,400.4
158.1707,146.4
158.1914,865.7
158.2118,328.6
158.2419,153.6
158.2557,312.4
158.2634,162.6
158.2837,17.1
158.2938,863.5
158.3134,193.3
158.3177,298.7
158.3351,579.5
158.3564,547.2
158.3824,19.4
158.3922,296.5
158.398,20
158.4583,170.1
158.462,164.2
158.504,20.3
158.5232,144.7
158.5651,20.6
158.5849,707.5
158.6184,294.4
158.6276,256.8
158.6355,16.4
158.6377,600.4
158.6831,120
158.7502,529
158.7868,117.5
158.8873,135
158.903,141.6
158.9562,129.1
158.9641,11103.4
158.9964,3223.2
159.0094,19.5
159.011,30.7
159.0131,253.2
159.0304,104.9
159.1638,17.3
159.1942,318.9
159.2773,212.3
159.2875,184.1
159.3342,125.9
159.3382,748.8
159.348,123.5
159.3563,19.3
159.3915,839.9
159.4342,22.6
159.4649,667.7
159.4712,319.5
159.5619,141.5
159.5875,375.2
159.7203,577.6
159.7348,668.3
159.7517,144.4
159.7554,557.6
159.7761,756.3
159.78,434.5
159.7933,231.2
159.8889,260.3
159.9067,18.9
159.9934,218.5
160.0228,32.4
160.0345,13194.1
160.0517,346.5
160.0604,37144.8
160.1841,308.3
160.2136,258.9
160.2531,289.5
160.3357,549
160.3815,135.7
160.407,18.6
160.4408,325.3
160.4577,832.1
160.4971,720.7
160.5049,1180.5
160.5244,523
160.6499,247.3
160.7153,169
160.7428,319.4
160.7668,17.2
160.7933,635.6
160.8307,238.8
160.8353,174.3
160.8766,464.8
160.918,23.1
160.9273,525.1
160.9922,195.8
161.0185,460.5
161.0301,127.2
161.059,546.1
161.0639,856.8
161.0912,492.9
161.1126,166.7
161.1284,5612.4
161.1326,826.3
161.1709,28.2
161.2191,140.3
161.3291,217
161.3627,125
161.3988,166
161.5165,450
161.5206,178.6
161.6319,345.6
161.6543,263.4
161.6825,261.7
161.7156,144.6
161.7177,341.9
161.7555,558.9
161.8128,718.1
161.9304,32.9
161.946,326.5
161.97,20.4
161.9928,110.1
162.02,300.6
162.0238,314.1
162.0501,16326.3
162.0983,20
162.1356,19.5
162.1872,19.3
162.2515,320.4
162.3714,305.2
162.4023,102.6
162.5114,150.5
162.5604,748.8
162.6519,111.3
162.6712,396.5
162.6778,232.4
162.7288,17.6
162.8775,504.9
162.9471,206.5
162.9557,9055.2
162.9641,624.7
163.0155,4402.4
163.0344,397.8
163.0498,20
163.0604,103.3
163.0803,619
163.0905,277.6
163.1423,310.6
163.1622,398
163.1778,346.9
163.1839,437.2
163.2354,283.1
163.2438,368.5
163.273,181.9
163.281,112.7
163.2922,951.4
163.3402,151.4
163.3763,176
163.3797,205.1
163.4214,335.1
163.4556,308.1
163.4776,137.2
163.4843,155.4
163.5962,557.7
163.6502,501.2
163.6573,170.8
163.6707,114.4
163.6849,606
163.6893,298.9
163.7161,536.8
163.7175,573.4
163.7273,17.9
163.7924,558
163.8175,958.8
163.8228,686
163.8311,380.6
163.8563,282.8
163.9001,133.1
163.9098,171.7
163.9555,324.6
163.9882,123.3
163.9995,33.2
164.0045,17.4
164.0237,172.8
164.0294,11271.6
164.0434,160.3
164.0879,412.1
164.1078,223.1
164.1776,115.1
164.3104,669.7
164.3199,211.7
164.3243,17.8
164.4002,141.1
164.4409,152
164.4609,178.1
164.5083,419.7
164.5235,378.1
164.5685,18.2
164.6512,319.2
164.7443,909.8
164.7537,126.7
164.7624,18.4
164.7871,366.6
164.7917,781.2
164.7999,328.1
164.8371,610.7
164.9042,16.4
164.9206,5091.9
164.93,8902.3
164.9351,968.7
164.9844,33.3
164.9925,6114.8
164.9997,550.5
165.0167,690.7
165.046,18.9
165.0561,134
165.0593,175.2
165.0696,19.8
165.1051,225.7
165.1928,19.1
165.2052,567.5
165.2389,99.2
165.2702,16.1
165.2832,526
165.3076,145.3
165.3882,777.8
165.3931,325.4
165.4084,172.1
165.6105,198.4
165.6142,587.3
165.6197,712
165.6286,576.5
165.6307,295.5
165.7016,744.1
165.7997,28.7
165.8164,134.8
165.8357,927.8
165.8717,302.2
165.8802,732.1
165.8857,18.6
165.9558,388.5
165.9583,597.5
165.9667,3531
165.9787,3090
165.9877,3974.4
165.995,2451.7
166.0839,522.8
166.0905,120
166.1144,126.6
166.2538,345.1
166.3119,133.1
166.3792,181.8
166.3908,412.3
166.4068,348.3
166.4511,24.5
166.5116,322.4
166.5481,195
166.554,300
166.5832,169.9
166.646,129.6
166.6573,141.4
166.7425,268.7
166.7672,306.3
166.8912,681.9
166.9124,294.1
166.9152,503.2
166.9508,23735.2
166.9626,691
166.9985,40.4
167.0002,93.8
167.0157,629.8
167.0217,7090.4
167.0913,389.7
167.1366,217
167.1489,168.5
167.2232,121.4
167.2461,422
167.2517,769
167.2575,298.1
167.3002,163.2
167.3392,203.5
167.3468,18
167.4492,31.1
167.4928,130.3
167.546,344.6
167.5735,376.3
167.649,623.9
167.6514,416.8
167.715,136.6
167.7868,149.2
167.8315,294
167.8338,136.8
167.9094,314.4
167.9349,665.6
167.9435,193.3
167.9539,838
167.965,644.3
167.9944,1879.3
168.0689,600.8
168.0734,112.9
168.1129,932.3
168.1455,243.9
168.159,301.1
168.2065,268.9
168.384,142
168.4211,241.8
168.4283,354.5
168.4663,856.3
168.4695,626.8
168.4961,324.1
168.498,119.2
168.5817,599.2
168.5899,103.6
168.7633,495.2
168.791,16.7
168.794,177.1
168.8508,291.3
168.9249,57.1
168.9373,338.6
168.9488,1095.2
168.9511,359.4
169.0111,577
169.0389,33.7
169.0475,212.7
169.0584,76000.5
169.0649,146.7
169.0946,1450.8
169.1395,20.4
169.209,180.6
169.3447,202.7
169.3686,133.1
169.3907,19.2
169.3952,123.3
169.401,723.7
169.4484,546.7
169.5047,225.1
169.5064,517.3
169.5522,104.3
169.641,395.2
169.7068,232.2
169.8032,528
169.9012,662.4
169.9191,141.1
169.9273,458.7
169.9328,834.6
169.9859,768.2
170.0029,34
170.0239,19.1
170.0328,1512.7
170.0489,437.7
170.0616,512.5
170.0639,268
170.0924,7054.1
170.117,847.8
170.1198,551.8
170.1308,344.7
170.1575,115.3
170.1856,230.2
170.2286,522.2
170.3117,122.6
170.3617,182.7
170.3894,489
170.4225,185.3
170.4634,22.8
170.4759,393.2
170.4876,646.5
170.4893,394.5
170.4935,674.4
170.6385,523.3
170.7118,803.4
170.7326,105.7
170.7388,204.1
170.7432,316.2
170.7456,630.5
170.7709,419.4
170.8281,705.1
170.8544,2844.2
170.914,315.6
170.935,404.6
170.9527,318.6
170.98,189.1
170.9936,516.9
171.0166,1701.8
171.0212,46
171.0279,220.4
171.0601,398.2
171.0635,170.7
171.086,419.2
171.1169,266.8
171.1736,104.6
171.2116,560.7
171.2692,801.7
171.2762,105.5
171.3188,279.1
171.3404,512.3
171.3792,614.7
171.462,322.7
171.5175,433.9
171.5285,630.2
171.6482,289.5
171.6678,18.6
171.6838,379.7
171.7183,144.8
171.7519,242.4
171.8076,133.1
171.818,18.2
171.8267,122.4
171.883,175
171.9957,101.7
172.0053,22.2
172.0078,924
172.028,387
172.0922,660.4
172.1323,151.7
172.1386,27.6
172.1654,219.3
172.2789,18.1
172.3556,20
172.4014,531.5
172.4089,611.6
172.4855,216
172.5662,134
172.6102,254.1
172.6324,18.2
172.6816,141.1
172.7071,540.6
172.7899,184.9
172.8215,625.5
172.8514,1637.4
172.8609,401.6
172.8772,18.3
172.9043,364.3
172.907,99
172.9259,556
172.972,20.5
173.004,105.8
173.0268,231.2
173.034,17.6
173.1128,546.9
173.1714,575.3
173.2189,306.7
173.2774,19.2
173.2853,391.3
173.2999,272.9
173.3557,424.6
173.39,18
173.4111,168.1
173.4522,19.1
173.4656,19.3
173.4836,177.9
173.4859,165
173.5547,208.1
173.5638,408
173.7556,353.2
173.8418,211
173.8485,275.5
173.8698,254.9
173.8888,354.9
173.9813,119.4
173.9883,20.1
174.0137,146.7
174.016,211.1
174.0617,120.8
174.1762,140.1
174.219,262.8
174.3019,18.7
174.3411,163.9
174.3628,789.7
174.3964,565.4
174.6217,17.7
174.6296,177.7
174.6461,275.3
174.7411,166.5
174.815,531.3
174.844,442.8
174.8584,327.2
174.8634,33.6
174.9002,293.5
174.938,4651
174.9688,1784.6
174.9922,568.4
175.0271,20.4
175.0342,2743.8
175.0454,3790.3
175.0577,572.8
175.1043,393
175.119,97921
175.2059,177.9
175.2198,137.9
175.2953,366
175.3065,149.1
175.3425,357.4
175.36,20.4
175.3956,309
175.4847,253.4
175.4886,413
175.5334,373.9
175.6049,124.6
175.6265,574.9
175.719,675.7
175.725,19
175.7482,99.1
175.7769,320.8
175.8062,864.4
175.8085,606.7
175.8319,321.3
175.9405,216.9
176.0003,81.2
176.0085,6914.6
176.0125,28.1
176.0164,26
176.0381,437.5
176.0452,224.3
176.0659,22991
176.1031,428.4
176.1224,1100.9
176.1737,576.3
176.2319,503
176.3576,19.4
176.3934,250.3
176.4693,197.9
176.4858,174.6
176.5305,29.8
176.5366,194.9
176.639,486.9
176.7234,217.1
176.8166,243.4
176.8301,389.6
176.8768,282.8
176.8937,150.6
176.9328,22.3
176.9433,717.3
176.9445,926.9
176.9926,2181.3
177.0247,3038.2
177.0611,2758.2
177.0858,311.5
177.1028,1117.2
177.1061,147.5
177.1717,404.4
177.202,185.5
177.2622,147.7
177.2654,123.5
177.3634,236.5
177.4671,17
177.4824,397.6
177.5158,170
177.5484,137.5
177.6478,522
177.658,177.7
177.7448,211.8
177.7827,374.6
177.8792,163.2
177.9221,297
177.954,163
177.9712,188.6
177.9808,266
177.9912,34.4
177.9947,44.7
177.9981,723
178.0087,9565.1
178.0241,8957.8
178.0587,6779.2
178.0942,170.9
178.2048,337.2
178.2342,306
178.2644,415.5
178.283,271.5
178.4116,211
178.449,16.8
178.5144,488.9
178.5345,265.9
178.5549,138.1
178.5598,146.7
178.5929,446.7
178.6516,195.5
178.6738,698.7
178.6776,214.7
178.7149,133.5
178.7391,18.4
178.746,546.6
178.769,471.9
178.8276,205.7
178.866,405.6
178.8929,142.5
178.9232,167.6
178.9759,21.1
179.0029,222.1
179.0079,355
179.0137,365.7
179.0818,973.4
179.1266,264.7
179.1579,386.8
179.2361,254.3
179.277,395.8
179.3204,17.6
179.3608,118.5
179.4319,399.8
179.4538,194.4
179.4951,175.1
179.5456,21
179.5529,961.2
179.57,19.1
179.5922,19.5
179.6786,229.9
179.7059,490.8
179.7163,18.2
179.7269,900.2
179.8285,612.3
179.8731,17.4
179.8914,64.8
179.9537,144.9
179.9706,223
179.9957,21.7
180.0034,9593.5
180.0105,153
180.0687,399.2
180.1129,282.4
180.2196,210.7
180.2835,738.8
180.288,457.9
180.2902,369.2
180.3841,429.3
180.3985,481.2
180.4179,405.5
180.4205,17.5
180.4413,154.3
180.524,475.7
180.7116,221.6
180.7739,457.1
180.8097,723.8
180.8214,321
180.8882,1771.9
180.8945,3405.7
180.904,7740.4
180.9246,198.7
180.9371,129.4
180.9667,331.7
180.9811,20.9
181.0162,20.2
181.0264,730.6
181.0311,30.5
181.0487,279.8
181.0648,7564.5
181.0707,666.7
181.1012,175.7
181.1156,153.8
181.1391,491.2
181.2571,177.2
181.2987,794
181.361,139.6
181.3746,661.1
181.5649,667.8
181.6016,472.9
181.6651,132.2
181.6977,156.3
181.7262,704.9
181.7655,271.4
181.7868,731.3
181.8306,808.1
181.8846,319.2
181.9002,266.3
181.9476,692.3
181.9615,627.4
181.9664,21.3
182.0222,234.4
182.0272,211
182.0425,27737.1
182.0786,396.3
182.0935,736.3
182.1046,19.7
182.1901,577.1
182.2495,245.3
182.2746,379.5
182.301,445.1
182.3552,19.3
182.3816,201.9
182.4714,628.6
182.5491,150
182.5643,975.6
182.6424,724
182.6794,579.2
182.7523,149.3
182.7594,590.6
182.7836,541
182.8424,380.9
182.8546,26.9
182.868,17.8
182.8838,48.1
182.9026,24.5
182.9167,728.7
182.9274,762.7
183.0215,127.8
183.0442,1374.5
183.0984,240
183.1766,764
183.2046,728.8
183.2779,525.8
183.3387,157.4
183.3433,180.2
183.3514,191.4
183.3705,31.2
183.3912,177
183.4872,139.6
183.5207,284.3
183.5356,482.5
183.7308,913.8
183.7341,207.6
183.8231,162.1
183.8257,599.5
183.8826,228.1
183.9647,2464.8
184.026,147.8
184.0372,1296.1
184.0681,2286.6
184.0734,5341980
184.0774,6344.8
184.0818,478.3
184.084,302.2
184.1098,243.3
184.1822,2793.3
184.2582,329.8
184.2769,18.1
184.5218,16.7
184.6238,576.7
184.6873,227.9
184.7429,20.7
184.7511,812.1
184.8105,139.8
184.8769,429.4
184.9082,624.5
184.9297,29.6
184.9672,262.1
185.0323,88101.1
185.0703,10243.1
185.0767,244836.2
185.3683,272
185.3828,192.4
185.4378,622.7
185.4479,299.5
185.5157,329.3
185.526,146
185.6085,209
185.633,151.2
185.7049,309.3
185.7829,738.9
185.8315,291.7
185.9004,179.9
185.9599,2049.9
186.0357,785.2
186.0539,169.5
186.0776,32125.1
186.114,121.5
186.1249,643.7
186.1825,542.2
186.2334,143.7
186.2642,526.8
186.3854,335.5
186.4256,144
186.4407,487.1
186.4676,215.4
186.6346,966.5
186.6674,405.9
186.7888,347.6
186.8786,97.7
186.912,2413.3
186.9177,237
186.9427,641
187.0231,139.2
187.0304,495
187.0578,9922.5
187.0714,341.2
187.0774,292.9
187.0849,156.5
187.1077,570.4
187.1421,227.5
187.1827,137.7
187.1898,308.9
187.2195,191.9
187.2845,15.9
187.2853,15.9
187.3371,235.9
187.4258,697.6
187.4385,294.9
187.4432,136.7
187.5451,162.2
187.6579,122.4
187.662,386.8
187.6949,160.2
187.6982,31.7
187.7206,136.7
187.7797,324.4
187.9003,169.1
187.9067,183.5
187.9209,18.4
187.9635,21.2
188.0123,32.2
188.0589,361.7
188.0719,183.9
188.0771,191.3
188.0897,727
188.1961,177.7
188.2522,429
188.3641,481.1
188.4998,152.4
188.5626,325.6
188.6159,466
188.71,277.9
188.7598,221.6
188.7947,421.3
188.8772,77.4
188.8899,555.4
188.925,21
188.9534,197.5
188.9776,113.6
189.0084,22
189.0209,67.1
189.0615,2877.3
189.087,6884.7
189.0915,163.6
189.1165,145.7
189.1523,299.6
189.1637,22.6
189.2334,236.5
189.2667,163.6
189.3376,579.6
189.4305,289.6
189.4514,476.6
189.4538,231.6
189.567,221.3
189.5794,303.3
189.6136,149.8
189.6669,170.7
189.7789,812.2
189.7939,162.7
189.8754,24.6
189.9638,167.4
189.9841,278
190.0188,177.6
190.079,147.9
190.1174,805.7
190.1901,183.7
190.2511,173.6
190.4412,131.2
190.4955,176.3
190.5343,881.5
190.7198,97.6
190.7504,21.8
190.7838,596.8
190.8688,26.1
190.8726,1022
190.8963,641.7
190.9081,177.7
190.912,2274.8
190.9373,20.1
190.949,19.6
190.9547,725.3
191.0004,164.7
191.0082,5767.9
191.0164,21.4
191.0236,19.6
191.0311,17.7
191.0404,110120.8
191.0768,20008.9
191.0802,140.3
191.2114,28.2
191.2253,326
191.2364,311.4
191.2491,190.5
191.2832,295.4
191.3135,971.1
191.5394,207.1
191.5864,134.4
191.6206,235.5
191.718,546.6
191.7507,164.6
191.7703,282.5
191.7988,344.4
191.806,527
191.8479,165.3
191.8856,175.5
191.9739,248.8
191.9825,991.7
192.0035,445
192.0112,45
192.0399,13706.6
192.0438,1405.9
192.0527,570.4
192.061,671.5
192.0744,443.1
192.1826,399.3
192.2469,297.1
192.3055,233.7
192.3166,387.2
192.3345,20.4
192.3435,729.7
192.4177,19.1
192.5216,269.1
192.5642,297.5
192.6452,132.6
192.7463,303.6
192.7669,155.9
192.7783,137.1
192.8064,355.7
192.9108,148.7
192.961,484.5
192.9798,220.4
192.983,16.8
192.9957,25.6
192.9988,1153.5
193.0067,550.5
193.0158,198.8
193.0349,1382.5
193.149,127.4
193.3626,413.7
193.378,209.8
193.5357,123.8
193.5537,241.8
193.5593,135.5
193.5658,17.8
193.6481,299
193.7919,147.2
193.8016,127.4
193.8768,282.4
193.9981,1104.2
194.005,1586.1
194.0103,1057
194.016,296.2
194.0216,804.7
194.0327,2780.5
194.1061,484.2
194.1102,20.9
194.1355,165.2
194.1542,257.4
194.3714,144.2
194.3783,708.1
194.5024,401.3
194.5407,341.4
194.5604,153.6
194.5814,491.2
194.6778,157.6
194.6913,317.3
194.7184,330.2
194.7211,128
194.8721,315.8
194.9039,457.4
194.9273,429.9
194.958,503.3
194.9726,20.1
194.9976,288.2
195.0112,24.8
195.0292,1366.1
195.088,20.6
195.1686,651.9
195.1952,17.6
195.2359,671.4
195.2839,177.2
195.3172,423.1
195.3729,16.8
195.4055,223.3
195.4452,134.2
195.4523,108.8
195.5247,378.6
195.699,534.4
195.707,168.5
195.7852,19
195.7961,19.7
195.8095,564.9
195.8325,142.1
195.9209,393.8
195.9321,490.6
195.9516,20.4
195.9796,17.2
195.9869,131.5
196.0679,17.9
196.0792,451.7
196.1364,21.7
196.1697,238.5
196.1868,842.1
196.198,16.9
196.2334,614.9
196.2952,349.6
196.3074,320.8
196.4462,222
196.5284,542.6
196.6643,323.6
196.6738,600.1
196.6896,18.3
196.7357,376.7
196.8327,272.3
196.8654,4050.4
196.8684,1422.7
196.8782,991.6
196.9145,17.1
196.9324,309
196.9463,340.9
197.0001,320.2
197.0488,196.4
197.0891,159.8
197.1009,559.5
197.1172,468
197.2222,188.5
197.3762,314
197.3845,309.2
197.4159,182.8
197.4206,223.5
197.5046,315
197.5225,571.1
197.5342,175.2
197.6119,382.6
197.6172,164.7
197.6313,818.6
197.6533,290.6
197.8593,687.9
197.8625,21.5
197.8909,65.9
197.8947,227
197.9315,18.8
197.9433,526.1
197.9648,17.3
197.9953,125.1
198.0077,191.9
198.0643,128.7
198.085,6566
198.1581,154.2
198.1854,3897.1
198.211,522.8
198.2518,19.3
198.3308,663
198.3436,22.6
198.4031,518.1
198.4176,530.5
198.4559,208.3
198.488,257.2
198.6192,301.1
198.683,144.2
198.723,673
198.7377,163.3
198.8541,70.6
198.8623,3546.8
198.9003,232.3
198.9469,20.8
199.0066,18.4
199.0165,47.3
199.0391,221
199.0453,18.7
199.075,687.1
199.0802,33.3
199.1886,245.3
199.2035,220.5
199.2368,206.6
199.2456,20.2
199.2597,200.9
199.2676,469.6
199.3666,738.5
199.4124,952.1
199.5411,107.6
199.554,203
199.7303,19.3
199.7819,256
199.7872,115.5
199.7992,129.8
199.8384,31.1
199.8595,18.3
199.8767,17.8
199.9009,169.5
199.9103,193.9
199.9528,397.1
199.9721,23.4
199.9776,219.2
199.9907,31602.6
200.0408,16644.8
200.126,434.4
200.1685,447.9
200.2001,320.7
200.2486,372.2
200.2682,730.2
200.2875,846.3
200.2985,656.1
200.3059,392.5
200.3294,27.8
200.3439,299.4
200.3508,12736.9
200.3715,341.1
200.3997,523.3
200.4078,582.1
200.4103,17.6
200.4471,208.9
200.4607,566.9
200.5352,576.3
200.5493,130.8
200.5579,716.1
200.562,129.2
200.5986,591.7
200.7081,283.7
200.7664,161.1
200.8593,494.3
200.8944,2978.8
201.0118,400.2
201.0191,401.9
201.054,783.8
201.07,707.3
201.0871,117.7
201.2018,156.4
201.2681,218
201.361,126.7
201.4477,123.1
201.5261,19.3
201.5549,310.2
201.6014,169.4
201.6882,264.2
201.7044,20.5
201.7235,119.2
201.8647,371.9
201.8944,249
201.9105,342.6
201.9288,154.8
201.9578,186.5
201.9957,97.6
202.0162,48.7
202.1341,21.8
202.2014,313.9
202.2645,317.3
202.279,337.4
202.3432,712.3
202.363,197.9
202.4927,343.9
202.5577,723.4
202.5775,300.4
202.6733,21953.2
202.7082,449
202.7148,19.2
202.8375,899.9
202.8402,20.3
202.851,18.7
202.86,162.6
202.8724,19.6
202.8861,369
202.895,109.2
202.9276,120.2
203.0319,8711.3
203.039,320.4
203.041,29.4
203.0527,1319506.6
203.0601,168
203.0768,9234.9
203.1028,656
203.1333,110.5
203.1707,551.9
203.1799,34.1
203.1859,17.7
203.1895,204.3
203.2034,255.4
203.2562,888
203.4783,171.1
203.4977,22.6
203.5194,727.4
203.6155,248.4
203.6435,21.8
203.7316,428.2
203.7684,236.7
203.7961,130
203.8218,288.1
203.9696,474
204.0118,24.7
204.0244,41710.3
204.0319,121.8
204.056,71080.9
204.0775,31.2
204.1178,286.5
204.1855,719.4
204.3575,172.9
204.3675,541.4
204.3954,635.5
204.4248,18.6
204.4387,1023.4
204.4839,621.1
204.5536,522.7
204.5573,137.7
204.5827,188.2
204.6207,571.3
204.727,620
204.8677,29.1
204.8728,34.7
204.8887,788.6
204.8958,17.8
204.9571,17.7
205.0159,20.9
205.0211,195.7
205.0314,31.8
205.057,8679.9
205.0654,224.7
205.0686,20.7
205.0835,44.2
205.1884,343.2
205.374,548.8
205.4134,779.1
205.45,978.3
205.4541,197.7
205.5155,320.2
205.5253,123.3
205.5505,268.8
205.7322,712.5
205.7814,117.8
205.8801,16.3
205.8891,51.5
205.9893,21.3
206.0398,321.9
206.0475,170.8
206.0552,2245.2
206.1451,483.7
206.2068,110.7
206.3304,273.3
206.3628,373.7
206.372,561.1
206.3897,539.3
206.4143,133.8
206.4481,222.2
206.5283,349.4
206.5815,604.8
206.8296,208.9
206.8337,164.8
206.8616,453
206.8878,320.9
206.894,14098.4
206.9018,157.3
206.9168,318.8
206.9653,168.9
206.9822,3664.7
206.9976,563.4
207.0144,82590.5
207.0443,459
207.0508,7590.2
207.0814,295.1
207.101,140.7
207.1282,150.9
207.2474,326.2
207.2819,140.8
207.3229,215.9
207.3866,136.1
207.4034,552.9
207.4138,254.1
207.4203,281.4
207.4828,206.1
207.5667,309.5
207.5933,31.6
207.6163,213
207.7131,390
207.7446,559.2
207.7529,19.9
207.8127,254.7
207.8498,147.7
207.8863,173.9
207.8923,275.3
207.9029,186.5
207.9908,832.2
208.0139,2543.2
208.0173,387.8
208.0348,410.3
208.0429,1000.1
208.1816,146.9
208.2084,401.1
208.3174,817.8
208.3657,290.3
208.4065,208
208.5264,19.4
208.5294,191.3
208.7522,588.1
208.7921,18.1
208.8055,34.8
208.839,21.2
208.8482,278.4
208.8736,131.9
208.8832,3149.6
208.8911,6075.7
208.936,567.3
209.0125,3737.3
209.0259,34.8
209.0494,1227.3
209.0769,309.3
209.1465,282.2
209.1606,31.3
209.2889,132.8
209.3098,162
209.3528,20.5
209.3734,490.6
209.4191,256.8
209.4574,322.6
209.4655,622.4
209.5193,130
209.5434,19.1
209.6153,492.8
209.8732,19.1
210.0822,18.1
210.3258,18.8
210.65,19.5
210.7393,264.5
210.7578,219.8
210.8472,555.8
210.8618,30.9
210.8832,33.2
210.8877,19
210.8976,116.3
210.9359,18.3
210.9483,22.9
211.0237,589.3
211.0532,419.3
211.069,989.6
211.1673,19.8
211.2282,741.1
211.2602,19.1
211.3218,4879.1
211.3322,36466.6
211.3362,34613.8
211.3383,28462
211.3426,24811
211.3487,10967.9
211.4359,218.1
211.5044,332.6
211.5631,109.3
211.5776,725.6
211.7781,504.2
211.8083,151.4
211.8353,626
211.9463,23.8
211.9592,90.9
211.9669,121.4
212.0742,118.6
212.0888,386.1
212.1458,566.2
212.1537,194.3
212.1808,700.9
212.265,162.1
212.5262,564.2
212.6095,204.4
212.6973,175.5
212.7572,17.8
212.8347,133.6
212.8392,982
212.8705,19
212.8748,189.9
212.879,86
212.9652,62.5
213.0184,375.2
213.0339,684.5
213.0484,356.2
213.0549,291.2
213.0749,1276.7
213.1944,240.8
213.2387,188.6
213.4182,513.1
213.4484,877.8
213.4649,279.1
213.4859,298.9
213.6901,345.2
213.772,158.6
213.9533,21
213.9621,3839.3
213.985,124.6
213.9999,217.9
214.0065,1006.6
214.0513,302.2
214.0589,10330.9
214.0898,1243.4
214.2094,152.4
214.3052,523.3
214.3574,184.2
214.4166,229.6
214.5015,592.3
214.5505,139.2
214.5891,270
214.6277,18.9
214.642,278
214.7508,342.3
214.8363,1745.4
214.8736,392.3
214.9101,906.5
214.9177,766.8
214.9597,686.2
214.9656,78.1
214.9792,438.3
215.0523,294.9
215.0648,173.4
215.0933,51.2
215.1062,531
215.1323,328.1
215.1746,397.2
215.223,363.8
215.237,426.9
215.3529,610.3
215.3588,158.9
215.4016,457.8
215.4241,199.2
215.52,840.8
215.5505,541.1
215.6293,900.4
215.8347,287.1
215.8739,29.9
215.8812,33.5
215.9096,155.4
215.9501,148.1
215.9579,24.2
215.9648,870.1
216.0147,11175.5
216.0238,28.6
216.0856,21.2
216.1284,331.5
216.1925,31.1
216.2153,151.5
216.2256,174.9
216.2675,849.8
216.2889,293.8
216.2946,786.9
216.4046,446.7
216.42,156
216.5537,486.7
216.6441,457.5
216.6745,253
216.6964,189.4
216.7235,19.8
216.7455,311.4
216.7482,104.9
216.7747,345.6
216.7847,19.4
216.8016,402.8
216.8333,729.7
216.8692,743.8
216.8889,56.5
216.9228,38183.3
217.0046,147.1
217.0261,20.7
217.0624,483.5
217.0879,471.2
217.0896,428.3
217.0906,272
217.1216,370.9
217.3309,155.1
217.3802,147.8
217.3816,158.8
217.3954,172.6
217.4136,615
217.4694,383.4
217.5343,205
217.5503,349.2
217.6076,602.7
217.6288,854.5
217.8105,806.1
217.835,138.3
217.8872,191.6
217.9084,19
217.9394,16.5
218.0019,713.8
218.021,380.4
218.0757,231.8
218.1517,27.2
218.2789,324.1
218.3199,139.2
218.3849,298.4
218.4342,273.3
218.4714,123.5
218.5454,581.3
218.5968,41.5
218.6802,693.9
218.6909,737.3
218.7395,20.2
218.7865,117.2
218.8605,371.8
218.8676,504.1
218.8879,21.9
218.9046,388.1
218.9199,11534
219.017,551.5
219.0267,1605538.9
219.0502,126.4
219.058,127.1
219.0829,7499.2
219.1056,166
219.1455,283.8
219.1675,18.2
219.2553,229.5
219.3337,872.9
219.724,461
219.7273,39.3
219.7947,583.1
219.8116,197.7
219.8422,369.8
219.9047,28.2
219.9984,689.6
220.03,81367.6
220.037,726.2
220.0523,208.7
220.067,7417.8
220.0984,136.1
220.124,783.7
220.1674,502.4
220.2218,509.5
220.2349,622.6
220.3172,142.6
220.3616,18.9
220.4084,111.8
220.4344,156.1
220.4709,162.9
220.5516,332.7
220.5548,631.1
220.6093,834.7
220.801,302.3
220.8633,154.3
220.8697,227
220.8837,87.4
220.8981,438
220.9034,89.8
220.9344,840.9
220.9535,676.6
221.0248,94109.8
221.0309,14487.8
221.042,805.2
221.0511,1184.8
221.0716,122.7
221.0846,902.3
221.1133,866.5
221.1213,228.7
221.1941,664.6
221.2804,920.1
221.2979,723.4
221.3317,283.3
221.421,175
221.459,280.7
221.4871,265.4
221.5108,448.7
221.5742,254.9
221.5998,618.7
221.8047,209.1
221.8374,248.3
221.8607,239.4
221.9564,20.7
221.9793,776.1
221.9835,2037.8
222.0282,1582.7
222.084,65.4
222.1663,284.6
222.3338,21.4
222.3877,18.5
222.4178,19.6
222.4429,149.2
222.5024,18.4
222.6367,881.4
222.7466,272.6
222.868,12191.5
222.8793,531
222.889,382
222.8988,768.9
222.9241,301.2
222.932,431.1
222.9468,326.7
222.9541,1217.3
222.982,19.7
222.9883,10783.5
223.0245,877.8
223.0372,1349.7
223.0595,124.9
223.0639,123.2
223.0813,40.9
223.1349,198.8
223.149,18.5
223.2805,174.3
223.344,785
223.3609,205
223.3791,344.7
223.3927,273.8
223.4133,164.7
223.4144,168.8
223.5108,118.9
223.5805,250.1
223.6267,512.1
223.6586,985
223.7897,20.3
223.8053,1030.9
223.891,1751.2
223.9443,970.4
224.0263,30.5
224.0295,1152.5
224.0557,18.6
224.0774,307.5
224.1656,141.1
224.195,444.7
224.2074,501.9
224.2918,199.1
224.318,190.4
224.3666,912.1
224.4269,751.3
224.4632,186.4
224.5064,363.3
224.6479,490.4
224.6718,208.9
224.8448,468.1
224.8649,7956.2
224.9274,138.3
224.9534,29.3
224.9791,237.3
224.9993,318
225.0062,18.1
225.0159,295.6
225.043,142.3
225.0548,23208.6
225.0593,724.4
225.0848,1498.6
225.1639,570.6
225.3583,20.1
225.3833,17.1
225.4917,690.3
225.5208,324.5
225.561,308.2
225.6102,303.9
225.6291,167.9
225.7391,174.5
225.7879,135.7
225.8185,18.4
225.8315,274.3
225.9523,23.1
225.9641,544.7
226.0026,303.4
226.0064,2654.2
226.0243,9306
226.0452,8324.3
226.2737,926.5
226.2974,168.1
226.3559,364.3
226.393,18.2
226.4791,160.4
226.5354,112.4
226.7053,130.9
226.7526,530.4
226.7701,150.9
226.7744,17.4
226.8492,23.6
226.8939,85.3
226.9331,522.5
226.9516,39454.2
226.9714,773.2
227.022,26
227.034,348.9
227.043,402.7
227.0795,1750.1
227.0864,192.3
227.1986,210.7
227.2776,172.7
227.3422,18.6
227.3624,996.1
227.4548,22.8
227.4601,164.1
227.5346,21.3
227.5769,126
227.8365,194.9
227.9027,744.3
227.9552,684.5
227.9617,592.1
227.9748,21
228.0005,1383.1
228.0154,254.6
228.022,941.2
228.0465,22.4
228.2729,22.4
228.2773,598.8
228.3027,414.6
228.3535,130.4
228.3719,235.9
228.386,117
228.4877,140.2
228.5109,16.8
228.516,603.7
228.5895,455.3
228.8431,327.8
228.8892,162.6
228.8961,473.6
228.9602,218.7
229.1191,643.7
229.2552,756.2
229.3469,303
229.3527,20.3
229.4637,112.1
229.4823,240.9
229.4989,157.1
229.5727,847.3
229.6845,621.4
229.823,905.8
229.8818,202.3
229.9128,22.7
229.957,12545.3
230.0121,202.3
230.033,68.3
230.1414,336.7
230.1942,350.3
230.2006,154.4
230.2224,511.9
230.2765,183.6
230.3538,615.2
230.4583,364.4
230.474,18.8
230.6961,444.2
230.7113,17
230.7433,356.4
230.8099,374.8
230.842,291.9
230.8573,902.1
230.8905,801.3
230.8974,20
230.9253,179.6
230.9357,180.4
230.942,174
230.9509,20.4
230.9604,510.4
230.9741,146.2
230.99,26.2
231.0026,21
231.0366,911
231.044,506.3
231.0696,349
231.0841,4474.4
231.2678,233.3
231.2974,202.1
231.3074,145.8
231.3162,223.2
231.3293,20.3
231.4436,174.3
231.4642,359.9
231.4734,479.4
231.7952,185.3
231.8262,506.2
231.8729,21.6
231.9256,176.1
231.9529,274.3
231.9575,427
231.9728,166.5
231.9791,593.7
231.995,39.6
232.2332,19.6
232.2983,264.4
232.3064,165
232.4074,306
232.5423,31.2
232.6351,390.2
232.7506,259.3
232.8117,121.7
232.883,119.7
232.8968,35579.2
232.9207,25.9
233.0024,652.4
233.051,6828
233.0683,122.2
233.2589,215.1
233.2731,354.1
233.36,915.8
233.4731,18
233.4915,594.4
233.5162,234.4
233.5258,163.3
233.5344,506.5
233.6021,174.5
233.647,601.4
233.7356,143.3
233.9311,18.5
233.9531,42.2
234.0915,339.5
234.1132,206.7
234.1419,307
234.3296,168.3
234.366,175.4
234.4645,305.8
234.6099,408.2
234.6246,21.6
234.6454,544.5
234.7125,242.8
234.716,212.4
234.768,126.4
234.818,471
234.8279,19.3
234.8938,10556.7
234.8997,187.3
234.9817,6328.3
235.0569,4563.6
235.0667,1138.6
235.0881,304.3
235.0927,5174.7
235.1066,605.2
235.1398,455.1
235.1708,583.9
235.1916,18.9
235.2076,824.7
235.2597,689.1
235.2871,194.3
235.3329,137
235.4549,119.7
235.4767,249.8
235.4841,201.8
235.5353,510
235.8694,18.9
235.8946,125.4
235.9042,651.5
235.9259,980.3
235.9631,19.7
235.998,246.9
236.0409,4444
236.0487,477.3
236.0717,54069.2
236.0894,255.5
236.4762,179.1
236.647,216.1
236.6804,135.7
236.6923,20
236.7872,391.5
236.8403,397.3
236.8519,791.8
236.8726,225
236.8781,699.3
236.9071,125.2
236.9344,514.9
237.0715,72.5
237.0752,3030.8
237.0797,21.2
237.1831,167.9
237.1982,32.7
237.2305,790.4
237.2888,486.4
237.4022,17.6
237.4644,216.7
237.5162,106.4
237.6084,327.3
237.6411,167
237.7094,251.1
237.8185,200.9
237.8511,202.2
237.875,168.5
237.8794,161.9
237.9287,311.4
237.9639,350
238.0103,680.5
238.0237,119.5
238.0675,825.8
238.0763,35.4
238.3296,156.9
238.3657,185.8
238.5569,17.1
238.6734,448.9
238.7868,19.2
238.807,391.7
238.8419,5005.4
238.8531,1540.1
238.867,155.3
238.9427,25.2
238.9595,854.2
238.9694,17.7
239.0092,5121.3
239.0484,383.9
239.0499,372.2
239.0589,20.5
239.064,1662.2
239.068,1336.5
239.0923,680.5
239.1271,218.6
239.254,228.7
239.3597,178.3
239.3641,326.3
239.4551,737.5
239.6073,416.4
239.6186,442.5
239.6425,146.5
239.6616,19.5
239.6652,429.9
239.7125,314.8
239.734,154.8
239.813,215.6
239.9954,312.9
240.0149,602.9
240.045,604.6
240.1001,39.9
240.1248,323.6
240.143,200.5
240.2543,872.7
240.3243,151.4
240.34,229.1
240.5279,200.9
240.5896,19.3
240.6284,201.8
240.6973,194.1
240.7163,18.6
240.7251,467.2
240.8386,2509.8
240.8508,383.9
240.8663,661.2
240.9551,1292.2
240.9716,367.4
240.9758,210.3
241.0312,943.6
241.0549,491.3
241.0828,317.4
241.1395,161.8
241.2589,201.8
241.3289,137
241.3529,508.9
241.3554,410.1
241.3684,572.1
241.3741,273.2
241.4212,333.7
241.5466,21.7
241.5581,193.9
241.5736,179.4
241.6225,443.8
241.6383,438.3
241.7161,307
241.7481,159.1
241.7731,229.9
241.8026,566.3
241.9491,202.2
241.9656,304.1
241.9777,137.1
241.9982,2347.4
242.0067,315.8
242.0193,2668.2
242.166,161.3
242.2106,252.3
242.2913,895.9
242.3397,842.4
242.3554,346.8
242.3781,137.3
242.478,332.1
242.6151,651.8
242.8128,51.2
242.8323,332.9
242.8682,19.9
242.9177,507.6
242.9256,24713.4
242.9628,369.3
242.9704,139.2
242.9759,55.4
242.9963,19.7
243.0065,71.9
243.0265,1038
243.0334,438.8
243.0533,8089.8
243.0655,9648.3
243.2456,150.2
243.3138,830.9
243.3528,213.9
243.5514,123.5
243.5644,265.8
243.7299,566.2
243.7984,347.9
243.9727,3893.1
243.9954,1204.8
243.9998,961.7
244.0126,157.4
244.19,172.5
244.3221,272.1
244.4585,222.2
244.5651,561.5
244.5984,656
244.6117,684.7
244.6574,624.9
244.706,113.2
244.746,439.2
244.8667,19.9
244.8708,5370.8
244.9236,1314.5
244.9448,190
244.9759,210
245.0532,1057.3
245.1042,887.9
245.1721,552.2
245.1894,293
245.2527,18.5
245.2605,160.3
245.4022,336.4
245.6027,18
245.6311,23.1
245.6841,146.4
245.7038,840.6
245.7169,186.9
245.7353,251.7
245.7572,118.4
245.7795,441.3
245.8268,338.8
245.8523,426.3
245.8989,662.3
245.9685,94.7
245.9729,105.5
245.9881,297.7
246.0013,80.7
246.0105,28.5
246.0831,181.6
246.1509,708.1
246.1682,297.8
246.2087,199.3
246.2414,418.8
246.2517,659
246.5613,189.7
246.6257,123.4
246.698,152.7
246.7586,560.9
246.7847,449.6
246.7886,720.4
246.8076,160.9
246.8129,466.6
246.8625,997.6
246.8987,24.6
246.9085,387.4
246.9517,3558.4
247.0077,390.8
247.0371,414
247.045,189.4
247.0581,4353.4
247.0621,449.4
247.0666,1330.8
247.0926,1961.6
247.1978,408
247.2329,277.1
247.2858,276.7
247.3641,21.6
247.4774,769.2
247.5693,24.8
247.5959,590.9
247.9243,35
247.9677,642.5
247.9833,534.9
248.0896,657.4
248.0955,19.3
248.1242,27750.5
248.2055,171.9
248.4298,20.7
248.4913,195.2
248.6004,155.2
248.6077,738.2
248.6995,164.2
248.7288,325.7
248.8258,822.1
248.8634,69.3
248.8707,9995.5
248.8847,514.3
248.892,248.4
248.9009,195
248.9151,45.2
248.9483,161.6
248.976,654.3
248.9978,332.1
249.0042,556.7
249.016,984.1
249.0613,13865.5
249.0865,504.2
249.127,1120
249.1626,150
249.186,626.9
249.1909,385.3
249.3501,119.2
249.4228,29.8
249.6297,18.5
249.6373,466.6
249.6577,160
249.7252,183.3
249.7458,1212.6
249.7575,19.8
249.7947,131.2
249.8853,253
249.9153,227.1
249.9684,56.6
249.9814,127.7
250.0194,893.6
250.0383,370.9
250.1929,194.9
250.3076,162.7
250.3841,165.9
250.4534,518.3
250.458,29.6
250.4721,613.8
250.4996,209.3
250.5698,21.2
250.5897,998.3
250.667,281.8
250.6848,249.1
250.7356,1472.8
250.7509,455.5
250.8006,201
250.8275,162
250.8682,1268.3
250.8939,352.8
250.9204,1870.4
250.9421,547.1
250.9556,2598.5
251.0195,179.2
251.0341,428.1
251.0533,412.8
251.1583,159.5
251.278,207.1
251.4442,352.7
251.4585,155.8
251.5496,204.6
251.637,397.6
251.6843,138.8
251.7878,545.8
251.7932,420.2
251.8106,439.3
251.8512,520.5
251.8944,139
251.9562,338.9
252.0175,202.8
252.0305,21.6
252.0362,757.9
252.0457,118264.5
252.1226,342.2
252.2109,137.7
252.2306,216.4
252.3408,540.5
252.3462,21.7
252.4083,21.6
252.5019,647.2
252.5985,563.5
252.8999,648.3
252.9102,30.3
252.9515,90.8
252.9545,163.3
252.9827,446.7
253.0245,164.5
253.0303,351.1
253.0366,633.7
253.049,9399.4
253.1485,139.1
253.2098,345.8
253.4437,134.5
253.5971,380
253.6089,348.5
253.7213,426.5
253.7386,233.5
253.796,300.1
253.8519,425.9
253.9381,548.6
254.0437,4028.3
254.0496,794.5
254.0697,22.9
254.1202,144.8
254.2311,199.9
254.2449,883.5
254.3456,532.4
254.3881,484.9
254.4284,141.9
254.6968,265
254.7146,188.8
254.7451,163.4
254.8156,1200.1
254.8238,4423.1
254.9634,579.8
254.986,158.3
255.033,29636.1
255.038,2771.3
255.0472,882.7
255.0914,393.7
255.1236,304.1
255.1896,347.3
255.6096,258.5
255.6205,169.6
255.6861,589.8
255.7009,147.9
255.8518,239.8
255.8583,739.6
255.9453,141.9
255.9785,853.2
256.0034,1880.2
256.0087,128.6
256.0623,505.7
256.0663,339.3
256.1352,474.7
256.2081,606.9
256.2251,214.8
256.2685,710.8
256.3397,319.5
256.3589,423.7
256.3728,642.9
256.3921,203.2
256.4815,260.6
256.57,483.2
256.6505,365.3
256.7549,353.2
256.7751,29.4
256.821,6583.8
256.8909,209.3
256.9055,453.8
256.9775,24.7
257.0221,261.3
257.0487,6217.4
257.0567,481.7
257.0654,271.5
257.0746,48616.3
257.0864,21.9
257.0908,21.1
257.1052,751.6
257.1741,670.6
257.179,172
257.2062,184.3
257.2484,553.7
257.3454,530.9
257.4116,654.7
257.6785,439.2
257.8248,754.1
257.8364,28.3
257.9296,174.7
257.9372,132.4
257.9521,252.4
257.9882,111.5
257.9931,476.9
258.0302,132.3
258.0743,49.7
258.0782,1866.7
258.1103,16238.3
258.2901,408.3
258.3315,322.5
258.3404,403.8
258.4911,20.1
258.5272,260.6
258.5675,1146.1
258.6143,450.8
258.6702,128.2
258.777,183.6
258.818,2556.8
258.8638,34.3
258.8945,25.2
258.8995,4404.5
258.9515,161.3
258.9609,21.2
259.1148,19.3
259.1562,128.9
259.2335,404.4
259.2383,379.7
259.2488,391.5
259.4072,373.6
259.4189,143.3
259.4337,518.9
259.455,891.2
259.4898,738.8
259.5586,598.6
259.5666,1383.2
259.5753,178.1
259.5925,19.5
259.7276,759.7
260.0218,209.2
260.3239,124.6
260.499,923.8
260.6113,605.5
260.6796,411.7
260.8449,1661.9
260.8552,19.9
260.8778,22
260.9248,18.5
260.9491,4742.9
261.0478,18.9
261.0734,106.1
261.0785,208
261.1075,176.8
261.1262,412.5
261.2161,159.5
261.3745,168.4
261.3861,623.6
261.4234,195.3
261.4611,19.8
261.794,795.8
261.8806,817.1
261.8983,443.7
261.9677,132.8
261.9835,235
262.0821,1068.9
262.1631,356.1
262.2954,464.9
262.4068,219.9
262.4458,332.5
262.5194,325.9
262.5759,205.8
262.8039,19.5
262.8234,298.1
262.8395,21.2
262.8876,792.2
262.9037,175.8
262.9167,124.5
262.9456,868
263.0132,484.3
263.086,531.8
263.1841,516.7
263.2064,252.4
263.2489,524.7
263.3166,556.8
263.4221,1198.7
263.529,151.8
263.5859,142
263.6061,329.1
263.659,284
263.7599,439.5
263.8353,31.1
263.8888,403.2
263.9429,698.9
263.9503,210.5
264.0104,504
264.1813,109.6
264.2053,17.6
264.2686,32
264.2966,209.2
264.3142,119.9
264.3179,155
264.4392,19.7
264.5952,603.7
264.5993,387.9
264.6646,242.6
264.7712,110.1
264.8178,321.7
264.845,1716.1
264.8527,2767.5
264.8731,306.1
264.8851,233.5
264.909,18.5
264.9335,3319.4
264.9732,1192.7
264.9885,11713.7
265.0352,9756.8
265.0473,838.3
265.089,405.9
265.1413,347
265.2356,108.5
265.4057,232
265.4353,20.5
265.7803,19.3
265.8026,364.3
265.8099,372.5
265.9273,965.4
265.9335,22.3
265.9579,44.3
265.9783,440.8
265.9931,125.6
266.029,621.1
266.0551,680.4
266.0984,739.5
266.109,170.3
266.1549,17.7
266.2031,903.2
266.2195,203.8
266.2492,151.8
266.2844,173.2
266.3732,923.2
266.5413,623.4
266.5671,171.7
266.5735,786.1
266.6879,510
266.8498,2759.5
266.8943,1547.5
266.9059,169.1
266.9586,163.9
266.9728,483.8
267.0137,22.9
267.0857,157.9
267.161,313.7
267.1778,22.9
267.207,217.9
267.2108,269.7
267.2438,878.5
267.4032,355.8
267.4213,328.5
267.545,178.8
267.5856,176.4
267.6471,1838.9
267.7107,518.4
267.8173,654.9
267.8877,807
267.9737,214.5
267.9939,935.2
268.009,95.2
268.0294,709.9
268.2345,314.4
268.2833,204.9
268.3441,18.1
268.4891,31.3
268.7091,118.5
268.784,742.2
268.8231,152.9
268.8699,623.5
268.9974,36.1
269.0281,831.9
269.0388,132.5
269.0448,15412.8
269.0486,42222.5
269.0573,124.8
269.0744,176.5
269.318,351.3
269.3243,156.1
269.3751,747
269.4118,428.9
269.506,234.6
269.5762,283.8
269.5954,425.5
269.6062,585.6
269.6726,483.4
269.9896,392.5
269.9938,1179.3
270.0097,127.7
270.0192,295.3
270.0248,20708.8
270.0473,19911.8
270.105,164.3
270.1153,60.3
270.1447,1532.8
270.2695,270.6
270.3367,138.8
270.3803,267.8
270.3876,24.4
270.4549,343.8
270.6031,390.3
270.6599,153.8
270.7334,34.2
270.798,2383
270.8424,242.3
270.918,36
270.9599,38.1
270.978,11555.6
270.9926,25.7
271.001,167.1
271.0281,1631.5
271.05,270.3
271.0903,2519.1
271.1048,151.9
271.1164,162.4
271.1222,823.9
271.1267,204.2
271.1622,807.6
271.2304,18.6
271.2519,737.3
271.4293,393.7
271.4887,177.3
271.7789,21.6
271.8682,151
271.8703,170.7
271.9075,26.4
271.9112,198.5
271.9675,340.4
272.0207,583.7
272.0288,31.4
272.0433,29
272.0542,162.3
272.0801,187.7
272.2223,328.7
272.3344,19.2
272.3664,757.8
272.6767,299.5
272.6969,284.2
272.724,156.2
272.795,2147.5
272.8017,286.9
272.8127,570.9
272.8247,36.8
272.8304,18.5
272.8678,462.4
272.8733,19.5
273.0488,1853.6
273.2554,577.9
273.3926,423.7
273.4297,147.1
273.448,243.8
273.5039,625.1
273.5152,599.5
273.5532,755.9
273.6518,32.6
273.7559,538.6
273.8158,307.4
273.9626,17467.4
273.9923,18.2
274.069,28
274.0923,2464.4
274.1201,537.6
274.1576,18.2
274.1896,187.6
274.2337,22.7
274.4863,125.1
274.4897,130.1
274.5396,164.8
274.5644,202.3
274.7229,18.9
274.7524,19.1
274.7918,921.4
274.8024,61.9
274.8734,806.8
274.8939,19.4
274.9724,131.2
274.983,20.6
275.0074,206
275.1401,187
275.1572,512.2
275.2599,135.2
275.2641,550.1
275.2715,782.8
275.2978,335.1
275.3184,430.3
275.5489,348.5
275.6003,20.4
275.6346,21.3
275.6724,130.6
275.7,19.3
275.7194,20.8
275.7636,150.4
275.8118,546.1
275.9622,17.7
275.9996,561.2
276.0032,145.4
276.01,445.5
276.0804,305.2
276.2296,487
276.3127,255.5
276.3742,17.6
276.4612,320.1
276.7035,808.1
276.7647,607.6
276.7905,19
276.8187,92.7
276.8279,497.4
276.9126,230.4
276.9231,4910.9
276.9627,1344.6
277.0012,394.7
277.0221,310.4
277.1254,368.6
277.3755,151.4
277.5218,608.9
277.5666,125.4
277.6117,177.5
277.6316,251.1
277.71,392.1
277.7874,344.9
277.8269,31.6
277.8619,1093
277.9251,259.9
278.0006,20.3
278.0191,335.6
278.0277,740.9
278.0485,162.1
278.2756,583
278.319,184.4
278.3528,626.7
278.3777,655.4
278.5819,414.6
278.6626,457.8
278.6883,699.8
278.808,238.8
278.847,28.8
278.8887,121.7
278.9189,360.4
278.987,2548
279.0042,2270
279.0566,37655.7
279.232,30.3
279.2752,111.4
279.2988,551.2
279.4487,169.3
279.507,440.2
279.5168,909.5
279.6252,246.5
279.6287,184.7
279.654,175.8
279.6807,579.1
279.7545,17.8
279.7778,169.2
279.8186,874.4
279.8432,18.9
279.884,159.8
279.9028,347.5
279.9078,22.5
279.921,66
279.9919,299.4
280.0117,574.6
280.0164,90.6
280.06,520.9
280.0642,262.7
280.1088,613.1
280.1726,712.9
280.4056,205.7
280.4173,670.5
280.6148,18.7
280.6817,855.5
280.813,120.2
280.8267,1744.4
280.9621,152.8
281.0096,1006.5
281.0107,970.3
281.0125,962.9
281.0514,829.5
281.0744,258.4
281.0821,864
281.1392,403.2
281.1573,30.9
281.21,208.5
281.2583,1007.6
281.3494,196.3
281.3919,427.6
281.6247,107.9
281.7459,463.8
281.9911,19
282.015,83.7
282.0234,170.4
282.051,184.7
282.0648,330.3
282.1532,249.2
282.1667,216.1
282.1997,34
282.3279,992.9
282.3333,458.8
282.4555,834.7
282.4929,383.2
282.5295,341
282.7491,135.1
282.7863,18.1
282.811,733.7
282.824,2297.1
282.9381,291.8
283.0283,1549.4
283.0479,352.8
283.0584,839
283.1348,17.5
283.1502,146.9
283.1933,533.2
283.2788,224.2
283.3041,480.8
283.3192,127.3
283.3642,18.7
283.4615,239.8
283.6379,150.3
283.6554,480.2
283.8648,168.4
283.9061,213.2
283.9892,60.1
283.9941,134.6
284.005,25.3
284.0244,204.1
284.0501,18.5
284.0633,60.5
284.0921,185
284.2339,142.7
284.2427,20.3
284.2793,557.9
284.5428,622.5
284.5487,151.9
284.6116,467.6
284.6885,269.4
284.7385,326.3
284.9354,17.6
284.9932,786.5
285.0225,1206.2
285.0491,1050.9
285.1001,1284.8
285.1233,1875.6
285.1643,197.4
285.2947,144.9
285.3707,219.1
285.4101,259
285.5632,388
285.5703,292.6
285.5883,531.5
285.748,114.2
285.8369,284.8
285.8794,854.5
285.9554,19.3
286.0121,161.9
286.0198,4859.3
286.3527,19.9
286.5816,576.6
286.6824,861.9
286.7466,161.4
286.7718,1971.6
286.8041,26.7
286.8412,32
286.8755,198.3
286.952,6516.5
287.023,439.1
287.0553,30461.2
287.0697,18.5
287.212,235.3
287.2344,16.4
287.2356,16.6
287.3965,977.7
287.4405,215.1
287.5305,21.2
287.5762,127.8
287.6591,1104.7
287.8112,56.9
287.8324,431.1
287.8757,218.7
287.9494,152.2
287.9733,606.8
287.9782,155.7
288.0156,92.4
288.0355,91.7
288.0843,23.6
288.1557,9934.6
288.1644,17.4
288.7577,376.4
288.7694,2537
288.8056,839.9
288.8559,43.4
288.8646,35.5
288.868,98.5
288.8755,84.8
288.8796,576.8
288.8859,497.9
288.8896,780.6
288.9023,6053
288.9116,6807.9
288.9215,12082.4
288.9273,11468.2
288.9386,17039.7
288.9422,15931.8
288.9473,16955.7
288.9572,22302.4
288.9587,22443.9
288.9673,21269.5
288.974,21660.9
288.978,17511.9
288.9839,16368.9
288.9873,14428.9
288.991,13500.5
288.9978,9403.7
289.0013,8612.5
289.0089,8111.8
289.0207,2394.1
289.0287,1009.8
289.0367,243.5
289.0562,576.4
289.096,400.1
289.1795,448
289.4421,249.1
289.5565,111.9
289.569,383.1
289.5943,273.7
289.712,841
289.9177,31.3
289.9368,2229
289.9775,349.6
290.0725,838.2
290.1004,20.4
290.1523,126.9
290.1595,368.4
290.2718,311
290.3476,903.9
290.5672,194.6
290.5736,219.7
290.6277,35.4
290.7169,782.5
290.7669,1037.8
290.79,19.1
290.7975,120.3
290.82,18
290.8344,31.2
290.8416,327.6
290.8897,152.2
290.9071,173.9
290.9261,48.4
290.9386,451.3
290.976,19.1
291.0267,3112.1
291.0546,18.6
291.2071,240.7
291.3822,338.4
291.4654,824
291.4881,129
291.541,338.2
291.5683,190.1
291.6238,130.8
291.6751,497.3
291.7186,384.9
291.805,28.1
291.8901,394.9
291.9731,166.6
291.9829,610.3
292.1854,205.5
292.2635,876.6
292.3876,331.4
292.4716,162.7
292.4763,214.5
292.6801,681.2
292.8258,981.5
292.8482,433.8
292.88,542.3
292.8974,1011.7
293.0066,452.9
293.0173,19.3
293.0393,457
293.0434,200.3
293.0721,1952.8
293.0982,202170.3
293.1716,251.8
293.1789,6141
293.4058,670.3
293.499,393.8
293.5953,374.3
293.6567,897.7
293.688,117.6
293.7947,30.7
293.8885,546.3
293.9087,323
293.915,456.1
294.1016,18789.1
294.1674,411.1
294.2583,177.1
294.309,229.6
294.3332,162.4
294.3593,545.6
294.4364,1053.8
294.4459,292.1
294.5141,150.8
294.6053,148
294.6609,330.9
294.7941,20.2
294.8419,640.5
294.9907,146.7
295.0306,659.6
295.1031,641
295.1947,32214.4
295.2168,31.9
295.2714,195
295.3063,111.8
295.4081,262.2
295.4462,454.6
295.4838,378.1
295.5413,19.4
295.5719,19.6
295.932,20.6
296.0754,294.3
296.1043,667.5
296.1982,1540.5
296.2508,29.6
296.3028,602.8
296.3755,17.9
296.471,469.1
296.5156,227.9
296.5842,125.9
296.8575,51.4
296.9873,64.2
296.9946,314.1
297.0606,321.3
297.1572,557.1
297.5294,365.4
297.7547,702.3
297.7832,21.6
297.7969,154.6
297.9117,285.1
297.9676,493.9
298.0257,953.6
298.0423,9487.4
298.0584,18.4
298.1107,46.2
298.1349,141.6
298.2681,272
298.4484,547.1
298.4585,621.8
298.5962,359.5
298.6249,454.4
298.6398,405.9
298.6588,490.3
298.6782,162.4
298.7151,114.7
298.7709,23
298.7939,187.4
298.8099,124.4
298.8878,104.5
298.9734,28.3
298.9895,18.7
299.0228,801.2
299.0458,777.9
299.062,77.1
299.0735,341.2
299.0771,647.2
299.13,803.2
299.1393,4068.1
299.1882,285.7
299.1957,2141.3
299.227,161.8
299.3578,110.4
299.4273,158.5
299.6326,137.3
299.6406,128
299.6467,268.6
299.8424,311.3
299.8673,320.9
299.8811,652.3
299.9322,390.9
299.9896,22.2
299.9986,217.2
300.0062,143.8
300.0354,1237.7
300.0484,20
300.0753,222.4
300.0834,18.5
300.142,1073.3
300.1961,252.8
300.2324,205.2
300.4042,367.6
300.4402,354.3
300.5525,805.3
300.5978,155.8
300.6155,554.8
300.6471,206.7
300.6538,227.8
300.7965,509.8
300.8193,102.1
300.8714,854.9
300.912,17.5
300.9464,848.4
301.0124,60.8
301.0386,20051.3
301.0781,624.7
301.1,130.8
301.1052,265.1
301.1412,266.3
301.1565,920.1
301.1767,527.9
301.1992,508.8
301.2118,4852.4
301.2345,572.6
301.4164,128.2
301.4581,349.9
301.5695,168.9
301.6329,132.6
301.643,436.4
301.6922,133.1
301.7256,572.9
301.7386,602.6
301.8156,18.5
301.8263,25
301.8476,21.2
301.8637,881.1
301.9428,162.6
301.9938,9657.8
302.0201,745.9
302.0346,31.9
302.0513,188
302.0638,2546.8
302.4028,161.1
302.5091,889.1
302.5352,209.6
302.6142,135.3
302.6759,325.9
302.7207,135.5
302.7418,443.3
302.7482,950.7
302.7535,504.7
302.7604,312.8
302.8032,195.6
302.8295,654.3
302.9982,178.8
303.0268,136.6
303.0672,173.5
303.1335,529.3
303.2171,3481.8
303.3185,615.1
303.4243,24.3
303.6137,322
303.8479,198.7
303.852,646.4
303.9032,21.8
303.9806,596.4
303.9842,748.9
304.0596,27
304.0653,23.3
304.1887,279.9
304.2985,550.4
304.4991,339.9
304.6568,297.6
304.8138,206.9
304.8267,430.7
304.8632,20.9
304.8726,283.1
304.8945,133.7
304.9054,208.7
304.9199,17.6
304.993,21.9
304.997,205.8
305.0381,292.1
305.2327,3646.5
305.3182,345.9
305.3465,26.5
305.6538,131.8
305.8846,41.1
305.9832,73.7
305.9952,312
306.022,596
306.0951,26.6
306.1621,549.4
306.2461,112.8
306.3796,658.9
306.4951,164.8
306.547,453.9
306.574,161.2
306.7011,427.6
306.8126,42
306.8418,361.1
306.8948,157.6
306.9579,1002.9
306.9772,1659.2
307.1359,35.7
307.1564,223.9
307.2453,634.8
307.335,19.2
307.4404,559.7
307.4632,188.7
307.4743,172.9
307.5339,754.2
307.6974,259.3
307.724,324.3
307.9569,644.7
307.9665,386.6
308.0205,18.6
308.1417,392.2
308.2043,411.8
308.2125,328.5
308.2807,205.9
308.4367,37.6
308.4487,803.7
308.4719,740.9
308.8081,491.8
308.8464,482.4
308.879,2758.1
308.9116,410.3
308.9422,795.4
308.9762,17.6
309.0064,122.7
309.0373,3463.9
309.0432,173
309.0737,584.4
309.0824,562.6
309.1509,686.7
309.1661,482.9
309.1729,305.4
309.2633,636.1
309.5696,22.4
309.6111,502.7
309.6483,234.8
309.8146,198.9
309.8467,194.4
309.8685,731.7
309.9322,755.3
309.9898,818.7
310.0209,40.4
310.0982,208.3
310.1249,795.7
310.1688,19.7
310.2527,679.7
310.3578,445.5
310.4094,17.5
310.6961,957
310.8005,290.2
310.8428,382.4
310.876,1648.2
310.9133,735.9
310.9235,217
310.9692,133.2
311.0027,26.4
311.023,146.4
311.0436,574.4
311.1671,1607
311.2511,560.7
311.4123,172.3
311.42,16.8
311.5486,138.4
311.6649,233.7
311.7256,404.4
311.904,18.9
311.9267,555.6
311.9987,82.6
312.0194,272
312.0303,531.9
312.0407,2355.4
312.1938,150.1
312.4772,116.6
312.5725,231.3
312.5888,580.5
312.6378,738.5
312.6639,18.6
312.7023,255.9
312.8583,1177.4
312.9708,141.5
313.0026,20.7
313.0178,310.6
313.0447,735.4
313.0786,21.6
313.0914,533.2
313.1606,462.8
313.2741,50908.5
313.2996,363.7
313.3299,772.9
313.3668,109.3
313.4861,436.8
313.5711,151
313.7774,18.4
313.8283,32.7
313.9989,925.7
314.0147,5373.3
314.0911,38.9
314.0963,714.6
314.157,213.2
314.2774,7697.4
314.3255,171.1
314.4248,17.7
314.5664,133.2
314.6739,139.5
314.6809,538
314.7735,19.9
314.7981,463.3
314.8144,321.7
314.8206,350.3
314.8368,4566.8
314.8502,52.1
314.9008,204.1
314.9359,935.6
314.9991,5502.7
315.0181,499.1
315.0336,164
315.0551,6721.7
315.0661,10947.9
315.0701,17051
315.0802,8159935
315.0897,14116.7
315.0938,6316.2
315.0962,6328.7
315.1047,846.7
315.1108,219.9
315.1172,328.7
315.1263,170.2
315.1277,168.4
315.1433,177.8
315.1613,5220
315.1857,138.8
315.2441,16.6
315.2938,305.9
315.3237,6023.9
315.3536,281.7
315.45,124.7
315.4863,122.1
315.6221,174.5
315.8364,17.8
315.944,69.6
316.0108,129.8
316.0685,347.1
316.0774,47282.3
316.0835,850955.2
316.0986,241.4
316.3331,507.5
316.3731,18.3
316.391,193.5
316.6016,133.7
316.624,322.5
316.631,653.9
316.7971,283.8
316.839,584.7
316.9867,2497.3
317.0656,522.5
317.084,95925.6
317.1682,154.2
317.1854,20.6
317.3482,179.7
317.4354,528.6
317.5358,712.5
317.7809,198.3
317.7952,26.8
317.7996,138.8
317.8221,136.2
317.8872,920.3
317.9232,28.1
318.0876,9261
318.1422,866
318.1539,19.5
318.1905,202.3
318.5386,287.9
318.7925,1787
318.8037,1093.4
318.9087,481.4
318.9209,28.2
319.0497,217.6
319.1947,50296.4
319.2832,215.6
319.634,216.2
319.647,187.2
319.7926,29.5
319.9893,135
320.0356,424
320.0746,20.1
320.1024,776.6
320.1503,403.3
320.1879,689.7
320.198,4575.4
320.2488,137
320.2587,6185.6
320.3903,567.2
320.4225,39.5
320.4576,595.4
320.692,310.5
320.7774,656.6
320.7933,94.2
320.8008,1066.7
320.8305,154.6
320.8956,688.4
320.9361,552.2
321.2103,77312
321.2623,496.4
321.3664,17.6
321.7256,472.8
321.8166,61.1
321.8517,20.1
321.9498,218.2
321.9925,128.8
322.0113,461.8
322.0456,391.9
322.0559,691.2
322.0819,218.2
322.128,203
322.2137,9857.9
322.3419,671.6
322.3586,24.1
322.4568,306.4
322.5111,441.1
322.7491,23.4
322.8251,319.8
322.8967,283.3
322.9351,285.4
322.9478,237.8
322.9541,171.5
323.0204,11444.4
323.1036,252.3
323.1498,298.3
323.2154,832.3
323.2261,1495.6
323.3363,305
323.4703,124.6
323.4947,366.8
323.6252,584
323.7352,127.8
323.7889,114.3
324.0018,6565.8
324.0818,23.9
324.1513,549.8
324.1823,218.1
324.4731,240.3
324.6795,1169.4
324.689,5655.9
324.7002,4416.8
324.7186,790.4
324.7326,610.2
324.8086,467.9
324.9239,183.4
325.0127,470.4
325.0593,530.2
325.2116,11180.9
325.223,849.7
325.4787,114.3
325.5093,98
325.5124,99.5
325.55,877.5
325.6539,322.5
325.6863,235.4
325.7078,278.7
325.7556,427.5
325.7954,20.2
325.9295,272.3
326.005,45.6
326.1171,336.6
326.1258,143.8
326.2132,405.5
326.4023,19.2
326.5293,329
326.5723,19.8
326.8502,1921.1
326.8944,422.4
326.9132,20.4
326.9951,120.3
327.0154,4123.7
327.0522,1167.9
327.1543,112.1
327.2273,30431.5
327.6191,656.2
327.7348,405.6
327.7549,260.6
327.9352,125.1
327.9832,19.1
328.0308,105.8
328.1093,202.4
328.169,476.6
328.2308,5003.8
328.2475,181.4
328.4901,357.4
328.5087,494.2
328.514,1522.3
328.5216,1041.8
328.5323,618.8
328.6893,590.3
328.7349,184.6
328.7895,114.5
328.8139,64.5
328.9166,605.6
328.9712,283.5
328.983,938.7
329.0003,311.2
329.0237,713.6
329.0958,537.1
329.2489,793
329.4426,1034.4
329.5831,324.4
329.6702,275
329.8225,26.5
329.9364,112.8
329.9851,22.6
330.0589,55.2
330.0661,115.7
330.0935,180.6
330.1456,103.8
330.2449,200.3
330.2715,251.9
330.4313,152.8
330.4733,155.5
330.5536,184.7
330.6483,142.8
330.7074,219.2
330.7945,33.2
330.832,187.6
331.0193,1898
331.0453,71058.3
331.0541,1104687.6
331.221,130.7
331.2526,199.4
331.263,581.8
331.3255,281.3
331.4907,214.6
331.5421,387.6
331.6144,656.9
331.6529,385.2
331.6855,166.6
331.812,861.8
331.8373,48.7
331.9097,494
331.9279,111.1
332.0257,28.3
332.0482,2074.6
332.0575,99417.9
332.1834,21.3
332.2351,352.7
332.2852,144.1
332.3618,128.7
332.4318,337.9
332.4797,580.3
332.4867,157.1
332.7214,433.8
332.8029,305
332.8086,155
332.8415,20.6
332.9283,436.1
333.0522,66163.8
333.0579,12213.8
333.1516,1440.5
333.1938,387.5
333.402,222.8
333.4185,948.4
333.5288,115.4
333.6972,20.1
333.761,535.8
333.7944,194.8
333.9506,214.4
334.0557,3714.5
334.0899,28.3
334.2442,168.1
334.3063,447.1
334.334,320.7
334.4228,449.7
334.4529,110.6
334.6666,145.6
334.6782,115.3
334.8369,73.7
334.8479,20
334.8814,545.9
334.9773,157
334.985,163.4
334.9992,471
335.0892,371.7
335.1398,375.5
335.1672,7518.2
335.5132,338.4
335.6853,140.9
335.702,577.7
335.7134,150
335.7522,324.5
335.8172,160.8
335.8328,110.7
335.8687,320.6
335.9605,128.6
336.008,744.4
336.1013,168
336.1708,873.2
336.4148,22.9
336.4674,938.6
336.6441,190.4
336.658,360.3
336.693,139
336.6984,624
336.8028,33.5
336.8467,297.2
336.8913,527.8
336.9052,221.6
336.9534,579.4
337.0362,11655.4
337.0497,14936.6
337.0621,506230.2
337.1336,23
337.1829,5223.4
337.2741,14755.3
337.5687,774.1
337.5811,139.8
338.0655,45050.9
338.1867,98.5
338.209,20
338.2778,821
338.3421,24.1
338.3626,149.6
338.4733,366.6
338.5079,781.2
338.6135,640.6
338.6319,147.9
338.6422,530.5
338.6818,22.3
338.9207,1098.7
338.952,574
339.0386,540.4
339.0472,468.2
339.0663,3344.1
339.1138,1088.3
339.1981,797.6
339.2897,8874
339.362,263.1
339.4027,133.1
339.6249,259.5
339.7777,438.9
339.7844,21
339.9671,1030.1
339.9762,529.3
340.0685,204.7
340.1301,20.9
340.254,836.6
340.4717,132.5
340.5639,204.1
340.6158,335.5
340.6558,300.2
340.8015,29.3
340.8884,169.2
340.9788,832.8
341.0035,566.8
341.0184,531.1
341.0841,30.8
341.1104,459.5
341.1688,201.9
341.2725,152.7
341.3054,5008.5
341.4845,302.4
341.5522,123.6
341.7823,478.7
341.7955,557.9
341.9888,192.4
342.0152,2617.6
342.3001,166.3
342.3873,321.8
342.4634,608.4
342.5651,433.4
342.5696,412
342.6165,20.1
342.7412,190.6
342.7828,655.8
342.8921,214.1
342.9648,112.8
342.9898,960.5
343.0116,552.6
343.0261,1126.1
343.066,34.5
343.1947,16666.2
343.2012,3071.6
343.215,164.9
343.3145,373.8
343.4146,1042.2
343.4241,506.5
343.5492,188.6
343.6416,466.4
343.7418,149.4
343.7511,188
343.8092,364.4
343.8767,114.1
343.9071,19.2
343.9361,22.5
343.9886,1022.2
344.1462,170.1
344.1718,168.1
344.3655,391.5
344.4039,137.1
344.4161,20.7
344.6193,323.2
344.7935,162.8
344.9681,352.6
345.2109,205
345.3225,770.2
345.4061,424.4
345.4575,318
345.7674,151.1
345.8673,549.5
345.9838,55584.4
346.0112,30.5
346.0408,137.9
346.174,627.9
346.184,339.9
346.2775,319.9
346.3759,31.4
346.4547,120.5
346.4763,353.4
346.4827,188
346.4936,129.9
346.6333,524.7
346.7345,889.7
346.9875,2797.3
347.0179,1757.1
347.124,749.8
347.2971,19.4
347.3385,329.2
347.6003,19.2
347.7157,184
347.9851,191.6
348.021,116.9
348.1072,260.6
348.483,213.4
348.4877,278.4
348.6092,149.1
348.6873,17.5
349.0093,768.1
349.018,196.2
349.0679,21.3
349.6769,183.5
349.7334,838.1
349.807,138.8
350.0192,513.1
350.3196,20.2
350.3374,407.5
350.3497,367.6
350.5909,123.9
350.734,430.4
350.7579,705.2
350.8089,384.2
350.8167,133.7
350.845,134.7
350.899,599.2
350.9508,33.1
351.013,141.7
351.0637,186.9
351.5642,302.3
351.6679,498.6
351.7316,186.3
351.765,287.8
351.9758,207.2
352.0928,835.2
352.1358,551.1
352.1455,368.2
352.3151,170.6
352.3652,140.4
352.4786,142
352.5353,369.9
352.5522,557.9
352.6931,24.9
352.9428,408.6
353.0272,126622
353.0361,216757.8
353.1811,273.9
353.2129,309.1
353.2685,214.8
353.4067,169.1
353.4591,396.5
353.6631,176.1
353.9759,208.7
354.0303,7806.8
354.0394,19281.5
354.1635,702.7
354.1906,135.3
354.3203,357.4
354.3267,143.1
354.3442,440.5
354.417,186.9
354.4828,445
354.587,660.3
354.6197,22.4
354.6628,154.4
354.7007,19.5
354.7918,655
354.9205,29.3
354.9739,267
355.012,736.1
355.0343,12075.5
355.0705,3172.2
355.0993,204.6
355.2464,217.8
355.395,151.8
355.4805,432.4
355.5938,112.5
355.9393,75.4
356.015,52.3
356.0398,148.5
356.0701,371.7
356.3334,155
356.3539,182.8
356.4735,485.5
356.6627,156.4
356.7705,606.5
356.8325,18.8
356.9409,749.4
357.0087,291
357.0186,220.5
357.0669,172.5
357.1039,217.8
357.1382,21.1
357.2045,214.8
357.5517,358.2
357.5984,292.8
357.6571,389.9
357.6716,1131.9
357.6774,631.4
357.6926,183.6
357.7038,324.4
357.712,158.4
357.8207,284.5
357.977,242
358.0485,119.6
358.1027,233.1
358.317,570.8
358.5437,143.8
358.6086,309.3
358.6283,583.2
358.6593,134.9
358.7065,160.9
358.8888,342.7
358.9644,23.5
359.0074,208
359.0316,13963
359.0441,365660.8
359.1046,285.1
359.1435,241.1
359.1673,1927.9
359.1751,1124.4
359.2214,487.4
359.3442,18.8
359.4155,556.6
359.4308,1140.3
359.4436,367.6
359.4502,1256.6
359.4608,115.1
359.4701,326.4
359.4783,19
359.484,507.3
359.4917,1451.9
359.5056,260.8
359.5125,469.6
359.5196,225.7
359.5418,695.9
359.546,473.3
359.5542,26.1
359.5746,130.3
359.6268,518.3
359.6833,18.5
359.8436,257.5
359.9301,326.5
360.0032,248
360.0474,32828.8
360.1569,184.8
360.166,293.8
360.3243,88.1
360.5931,637.7
360.7292,136
360.8045,38.4
360.9077,18
360.9817,184.8
361.0202,2524.3
361.0291,146.3
361.0483,718.1
361.1832,422.8
361.2004,247.4
361.2481,19.4
361.2744,224
361.5239,164.5
361.5741,177.4
361.7003,582.8
361.7368,431.4
361.7586,20.8
361.9368,19.8
361.9578,18821.8
362.0141,542.2
362.0275,175.9
362.2552,850.3
362.3932,152.5
362.4027,243.1
362.4275,808
362.4441,485.1
362.5036,394.6
362.7955,324.8
362.8196,240.3
362.8892,280
362.9622,120.2
363.0381,120.9
363.5842,820.5
363.5978,439.9
363.6103,390.6
363.7655,868.3
363.7905,179.6
363.8196,55.5
363.8534,195.1
363.9009,231.3
363.9562,169.8
363.9978,1364.6
364.0784,107.8
364.175,358.8
364.3854,211.7
364.4432,180.9
364.7232,899.5
364.7581,30
364.8552,128.6
365.0276,956.8
365.0565,142.7
365.1049,643.1
365.2366,19.1
365.4704,162
365.6142,19.2
365.7088,722.6
365.7835,287
365.9524,19.6
365.9862,88.1
366.0276,180.4
366.1545,433.3
366.2437,19.9
366.3028,20.8
366.315,584.3
366.479,106.6
366.5106,185.5
366.6039,20.5
367.0319,166.8
367.1218,2005.6
367.1625,160.8
367.1947,2188.7
367.2855,32.3
367.2945,31.2
367.4029,128.6
367.6119,179.1
367.8581,330.3
367.8663,575.3
367.9917,1096.9
368.0028,140.2
368.1446,224.6
368.1996,317.3
368.3753,196.9
368.4632,291.3
368.4965,20
368.5621,273.4
368.6254,441.1
368.632,675.1
368.6752,257
368.736,383.4
368.7429,372.8
368.9482,367.8
368.9923,2661.9
369.0008,14071.5
369.01,8656.6
369.0248,315.6
369.1269,654.9
369.2412,377.7
369.3677,565.6
369.4014,269.6
369.4408,121.3
369.5161,725.9
369.8978,159.2
369.9221,196.3
370.0915,198.9
370.2957,898.1
370.4735,20.2
370.5185,19.4
370.5809,267.2
370.81,34
370.8318,328.2
371.0003,1814.8
371.008,716.9
371.0276,163.1
371.0983,601.8
371.2655,897.3
371.4005,19.2
371.4194,298.4
371.5216,737.7
371.8527,22.5
371.907,19.6
372.0718,158.9
372.1371,771.9
372.4191,337
372.6956,394.4
372.705,17.9
372.995,140.6
373.1006,516.1
373.3043,189
373.3281,216.5
373.6781,182
373.6906,404
373.7549,23.5
373.8114,70.2
373.9497,82.6
373.9672,153.4
373.9914,652.4
374.1942,372.4
374.282,163.9
374.6076,554.7
374.647,355.8
374.735,481.2
374.7405,696.5
374.8093,256
374.8152,17.7
374.8546,331
374.8975,121.2
375.0091,144290.6
375.018,116728
375.0648,293
375.0706,183.8
375.2345,20.7
375.3276,20.3
375.8656,247.3
375.9651,115.3
376.0124,13358.8
376.0216,7269.9
376.1739,223.7
376.1819,140.6
376.2391,206.3
376.277,41
376.2862,1951.6
376.2952,559.5
376.4941,597.5
376.6615,446
376.6694,214.6
376.6944,975.6
376.7331,337.5
376.8094,22.7
376.8345,85.7
376.9442,19.9
376.9939,499.6
377.0163,5849.5
377.4412,160.5
377.6142,407.1
377.6671,109.8
377.7765,292.5
377.7904,314.3
377.8558,215.1
377.8693,121.3
377.9313,889.7
378.2586,133
378.3346,111.2
378.4989,290.9
378.6457,189.6
378.816,293.2
378.9352,887.5
378.9717,492.4
379.0967,268
379.1161,34.6
379.5262,187
379.5633,350.8
379.5806,181.5
379.7505,438
380.117,225.7
380.1426,230.2
380.1979,309.7
380.2901,118.4
380.4672,151.6
380.674,355.4
380.8298,66.5
380.9596,546
381.0136,20987.9
381.0261,228902.6
381.0711,282.2
381.2305,574.2
381.2464,681.3
381.6689,207.5
381.7625,21.5
381.8154,20.9
381.8549,19.5
381.8635,849.8
381.9571,34.2
382.0294,21379
382.102,24.1
382.1171,147.7
382.3897,589.8
382.4505,455.1
382.4593,22
382.7676,562.1
382.7768,21.3
382.8429,314.7
382.9128,270
383.053,240.9
383.1163,180504.6
383.3648,374.2
383.3939,535.3
383.5921,242.5
383.7412,589.2
383.808,641
383.8459,906.8
383.9474,119.5
383.9656,879.1
384.0104,619.4
384.1196,18593.6
384.1451,19.5
384.1889,390.3
384.2004,321.4
384.2502,162.7
384.2598,453.3
384.2672,128.8
384.3211,495.3
384.3666,106.6
384.3834,374.4
384.4192,524.6
384.4287,183.4
384.5137,364.8
384.7387,182.5
384.8242,20.4
384.9308,186
385.0607,311.2
385.12,1018.3
385.1441,246.2
385.212,185.6
385.2738,265
385.3117,106.8
385.456,166.4
385.6774,20.9
385.9473,120
385.9793,10880.1
386.0185,324.3
386.3744,19.3
386.4526,259.7
386.9795,191.3
387.0027,2024.6
387.0915,113.7
387.3936,218.8
387.6365,337.6
387.9778,1120.5
388.1839,1002.8
388.3327,143.3
388.5588,514.1
388.6477,343.2
388.6843,528.6
388.7121,622.1
389.0636,556.3
389.8095,20
389.9737,53535.7
389.984,125.5
390.0451,24.6
390.1475,379
390.2286,658.4
390.2644,215.4
390.3026,186.8
390.3402,218.4
390.6292,281.1
390.7797,26.7
390.791,240.9
390.8577,873.8
390.8683,455.5
390.9526,448.4
390.9583,366.6
390.9741,15151.4
390.9828,29225.1
390.992,12409.7
391.2827,177.5
391.5348,21.5
391.6378,329
391.9854,883.7
392.004,27.4
392.141,112.6
392.2228,143.5
392.2612,23.4
392.2872,298.3
392.3512,988.6
392.4549,218.2
392.5835,21.9
392.675,520.8
392.8194,159.1
392.8318,645.8
392.9637,22.8
392.9816,2670.7
392.9905,830.2
393.0084,329
393.5326,542.1
393.877,440.2
393.9535,545
394.045,382.6
394.4178,170.5
394.4706,488.4
394.496,18.1
394.5492,19
394.6213,18.8
394.6469,631
394.6662,129
394.9769,582.9
395.0349,282.1
395.064,438
395.0985,105.5
395.1877,552.3
395.3404,19.9
395.4572,311.5
395.512,207.5
395.6853,589.3
395.7897,272.2
395.8648,21.2
395.8977,128.1
396.0046,20.5
396.1327,435.4
396.1602,246.6
396.3691,884.9
396.3894,147.3
396.7932,324.4
396.8216,301.1
396.9911,185981.6
396.9999,77542.2
397.0611,404.6
397.1178,24.3
397.1394,211.8
397.2744,138.4
397.2845,567.8
397.6027,140.8
397.9089,118.9
397.9943,13842.9
398.0034,4878
398.134,395.7
398.2045,678.1
398.2419,2953
398.2778,148.1
398.5285,191.2
398.5823,425.1
398.6606,119.8
398.6952,33.7
398.7412,1110.4
398.762,1094.3
398.861,399.2
398.937,118
398.9507,155.5
398.998,2084.9
399.3458,233.7
399.489,179.9
399.8308,184.3
399.9991,129.6
400.1383,905.9
400.2353,641.6
400.2498,445.6
400.5619,128.7
400.7383,1703.9
400.7748,601
400.8127,169.2
400.8241,336.3
400.8517,139.6
400.9351,393.1
401.0261,158.3
401.3677,187.9
401.603,221.9
401.6889,18.2
401.9452,21.6
401.9533,1774.3
401.9898,171.3
401.9987,803.9
402.0413,390.3
402.1272,698.9
402.4202,104.1
402.5454,20.1
402.8241,1774.2
403.008,276954.1
403.3601,18.7
403.6043,309.9
403.8207,23
403.9424,1636.5
403.9513,122.2
403.9605,479.1
404.0113,27323.7
404.0797,194.3
404.239,141.3
404.3249,151.6
404.5371,611.3
404.5683,142.5
404.6973,584.1
404.9223,710.7
404.9261,705.4
404.9596,145.5
405.0126,1101.4
405.0587,302.8
405.0871,136.2
405.0969,137.7
405.1594,912.5
405.1813,174.8
405.2228,621.8
405.2288,584
405.7003,155.2
405.8085,672.8
405.8223,23.7
405.8406,125.8
405.9368,843
405.9475,35805.1
406.1027,172.6
406.3293,955
406.4365,19
406.5617,434.2
406.5989,708.9
406.7459,887.8
406.7722,1423.6
406.8225,153.3
406.9037,419
406.9467,816.3
407.1277,788.7
407.3061,174.5
407.3328,109.7
407.361,17.5
407.6042,113.4
407.6317,214.5
407.7624,130
407.8175,325.3
407.9461,478
407.9548,164.5
408.0552,448.8
408.0869,541.7
408.1547,203.9
408.1962,578.3
408.2058,267.8
408.2787,125.8
408.5728,357.8
408.6003,786.2
408.6719,19.7
408.7015,29.1
408.7702,1844.1
408.9797,478.9
408.9972,179.8
409.176,406.1
409.2683,169.7
409.2854,20.2
409.5569,236.1
409.5831,563.6
409.7111,187.7
409.7725,147
409.8102,118.1
410.0097,123.3
410.0497,569.7
410.3027,364.9
410.3452,594.7
410.5569,340.3
410.7651,21.9
410.8289,144.5
410.9341,22.5
410.994,156.4
411.0475,168.8
411.0927,187.6
411.1915,197.6
411.2144,427.6
411.2455,688.9
411.262,669.5
411.2991,298.3
411.4557,193.6
411.5367,169.3
411.5607,382
411.7409,19
411.8566,350.6
411.8713,135
411.9019,19.5
412.1605,534.5
412.2672,182.1
412.3213,5116.6
412.335,37.6
412.3881,19.2
412.708,855.5
412.793,101.8
412.9369,18.9
412.9644,50760.4
412.9738,12115.4
413.0578,889.7
413.1057,908.3
413.1307,180.1
413.2661,3733.1
413.3247,453.3
413.4038,902.3
413.424,231.2
413.5768,109.1
413.6382,355
413.7371,280.1
413.7551,696.2
413.9411,487.7
413.9679,758.1
413.9768,224
414.2699,267.1
414.2949,331.4
414.3284,29.5
414.347,155
414.4944,30.2
414.7152,1009.5
414.9073,664.6
414.9434,22.5
414.9638,2413.3
414.9748,262.5
414.9867,184
415.0371,291
415.1501,206.3
415.2198,415.3
415.2467,310.8
415.2818,1801.3
415.3369,108.5
415.4403,160.6
415.5948,17.8
415.6704,131.4
415.711,152.9
415.7788,204.3
415.9776,23
415.993,193.3
416.0062,198.3
416.1352,6104
416.2143,49496.2
416.7961,643.6
416.8967,107.8
416.9579,166
416.9891,191.9
417.2174,4760.1
417.5694,169.9
417.5916,19.8
417.664,20.2
418.0384,20.2
418.2782,187.5
418.2935,190.2
418.3699,118.2
418.4516,898.6
418.5201,698.8
418.8092,148.4
418.8369,336.8
418.9605,20.7
418.9819,103857.3
419.218,217.3
419.256,1405.5
419.3004,505
419.4424,615
419.5501,144.1
419.6227,21.2
419.6863,18.3
419.7168,457.6
419.8103,28.8
419.8174,19.5
419.9849,5893
419.9999,20.1
420.0566,617.3
420.1846,448.5
420.4844,226
420.5676,20.6
420.5759,152.3
420.8869,760.9
420.9584,151.2
420.9802,2916.6
421.8331,294.4
421.9,123.8
421.9215,12696.1
422.0398,499.5
422.1271,21
422.2379,961.6
422.288,178.4
422.3049,34.3
422.5857,164.2
422.6122,663
422.661,22.7
422.8333,35.8
422.9241,115.4
422.9538,806.5
423.149,454.8
423.6016,587.7
423.6217,153.8
423.673,19.7
423.7412,131.5
424.0424,131.1
424.1113,254.8
424.2204,462.5
424.2313,435
424.2525,183.9
424.2657,774.9
424.2901,28.7
424.2925,30.2
424.431,269.7
424.4393,19.7
424.518,190.3
424.7775,46.3
424.9266,624.9
424.9793,242.1
425.0291,20.5
425.1783,419.9
425.2475,216.2
425.2632,21.3
425.3328,341.6
425.5629,743.9
425.5781,862.7
426.4091,17.6
426.5702,180.5
426.6118,279.4
426.673,168.5
426.8523,566
426.9056,144.2
426.9417,83.3
426.965,150.6
427.1381,18.7
427.1563,772.1
427.3132,145.2
427.498,630.2
427.7337,268.6
427.7859,145
427.8061,365.4
427.8989,673.3
427.996,20.6
428.0037,246.6
428.0217,651.6
428.2224,201.3
428.341,533.6
428.4682,120.6
428.8095,936.2
428.8277,871.5
428.9379,14469
428.9478,124.1
428.9625,503
429.0266,175.2
429.0499,442.9
429.0619,1892.2
429.0889,1595.8
429.1279,343.5
429.183,205.1
429.1963,540.6
429.2448,219.3
430.01,425.9
430.0881,221
430.1218,404
430.2708,237.6
430.4125,654.3
430.5248,163.8
430.9145,2038.8
430.9386,251.7
431.0479,306.8
431.0777,408.1
431.0864,220
431.2169,3924.4
431.2538,288.4
431.29,697.9
431.3692,17.5
431.458,207.4
431.9504,105.1
432.0157,21.4
432.4007,391.7
432.7431,22
432.763,20.9
432.8325,176.9
432.9153,352.8
433.1349,177.3
433.2497,44.7
433.3703,108.8
433.5866,289.3
433.6868,360
433.883,165.6
434.0162,36.4
434.1002,23
434.1266,732.2
434.4432,141.2
434.4875,218.7
434.5831,185.6
434.773,425.1
434.9065,584.3
434.9558,18568.4
435.0385,363.6
435.1157,207.9
435.1294,429.8
435.2887,401
435.5786,25.5
435.6604,636.5
435.6827,430
435.8452,478.8
435.914,177.7
435.9593,398
436.0894,335.1
436.2671,418.7
436.4371,359.7
436.668,121.6
436.7716,110.7
436.8343,136.8
436.9534,385.1
437.0593,301.5
437.0861,204.3
437.2503,172.2
437.2838,278.5
437.3025,319.9
437.3432,237.3
437.4288,270.4
437.4734,591.7
437.4827,193.8
437.8178,139.1
437.9662,17.3
438.103,186
438.1958,1876.5
438.2396,194.9
438.3301,552.4
438.4263,271.1
438.4447,433.5
438.5655,559.1
438.6056,824.8
438.7988,385.5
438.8578,21.9
438.9723,1216.9
438.9847,3732.2
439.0119,268.8
439.2044,475.3
439.5174,628
439.5354,186.9
439.6466,182.9
439.8007,22.6
439.9635,181.9
440.0789,339.5
440.2199,21
440.2353,174.5
440.3418,159.2
440.4217,22.2
440.6087,141.1
440.7455,248.5
440.9838,405.2
441.0286,674.8
441.0651,744.6
441.2046,147.3
441.2379,638.9
441.2979,220
441.3901,128.5
441.4324,164.9
441.6743,616.4
441.7942,172.1
441.8423,881
442.0465,359.6
442.067,118.6
442.2462,450.5
442.3007,19.8
442.3812,337.8
442.4168,178.6
442.5744,20.4
442.9086,370.8
443.146,620.4
443.1584,492.5
443.2534,1907.7
443.6986,25.1
443.9723,435.1
444.0444,978.6
444.0891,828.5
444.2697,708
444.4088,298.8
444.5676,31.6
444.7385,164
444.7624,154.6
444.798,360.4
444.8427,26.1
444.8748,175
444.9108,928.2
444.9553,149
445.0363,460.5
445.1212,128.2
445.2327,766.1
445.2692,1739.2
445.3079,117.6
445.3693,796.9
445.4078,237.6
445.4831,782.2
445.5149,816.6
445.874,268.1
445.9708,170.3
446.0243,508.9
446.6912,375
447.1789,528.4
447.1842,819.2
447.2872,408.5
447.4217,696.9
447.7249,19.1
447.7411,135
447.9323,7040
448.2726,687.8
448.9326,5279.5
449.1184,214.7
449.1543,2449
449.2255,520.6
449.3089,168.1
449.3195,31.6
449.4145,134.6
449.4232,238.2
449.6432,18.3
449.876,376.5
449.9303,981.4
449.9761,181.8
450.1577,460.9
450.1838,203.5
450.2055,140.9
450.2307,378.8
450.3196,308.8
450.4382,236.2
450.6657,480.5
450.9288,1151.3
450.9879,207
450.9958,767
451.1573,1442.6
451.5255,859.1
451.6539,713.8
451.7537,682.4
451.8471,739
452.0603,113.3
452.548,212.2
452.719,409.1
452.7577,256
452.8708,150.7
453.1734,2925.3
453.4184,143.4
453.4475,483.6
453.662,260.3
454.5419,204.5
454.721,390.3
454.8057,19
454.8181,176.4
454.937,36.4
454.9499,37380.4
455.1233,765.5
455.1922,521.6
455.2797,36.8
455.5211,212.1
455.8575,285
456.0699,460.1
456.1155,744.7
456.1611,122.7
456.1727,290.7
456.2088,255.9
456.2394,575.6
456.254,172.9
456.7147,412.8
456.7241,244.1
456.9351,22.5
456.9469,8382.1
457.097,23.2
457.1408,539.7
457.1619,609.1
457.2329,17971.4
457.264,464.9
457.6943,146.1
457.876,695.9
457.9056,117.6
457.946,299.7
457.963,140.1
457.9929,233.8
458.2361,1643
458.2672,266.2
458.2777,197.2
458.6988,445.6
458.9621,3473.8
459.1186,740.5
459.1678,418.6
459.2485,548442.9
459.4339,197.1
459.6869,176.2
460.0869,165.1
460.2518,110846.4
460.9456,662.2
460.9666,82835.1
461.0102,687
461.0531,408.6
461.241,293.8
461.2545,7318.7
461.3412,159.1
461.6335,288.8
461.7165,311.2
461.9173,190.4
461.97,4705.3
462.2022,115.2
462.5001,401.2
462.6978,140.9
462.7544,211.4
462.7767,367.5
462.821,23
462.9637,19991.8
462.9968,430.2
463.0883,925.6
463.1104,313.9
463.201,775.5
463.8069,31.8
463.9063,2644.8
463.9667,387.3
464.3395,111.8
464.3794,20.3
464.5475,163.4
464.5558,692.2
464.6979,409.2
464.7223,66.5
464.8382,174.3
464.9556,304.8
464.9784,6843.6
465.0937,850.9
465.1144,183.1
465.2516,966.4
465.5733,130.9
465.5885,119.2
465.7556,519
465.8363,167.5
465.9555,18.9
466.071,808.9
466.1203,117.9
466.1606,359.7
466.1798,20.8
466.832,362.5
467.0393,198.5
467.257,352.2
467.2717,354
467.4447,378
467.6803,18.9
467.7324,712.8
467.9434,393.9
468.3085,1703.2
468.3766,762.2
468.7238,218.1
468.7265,200.6
468.7423,391.9
468.9299,790.9
469.0354,324.6
469.1483,767.3
469.2317,155.1
469.239,20.5
469.3302,22.9
469.3961,539
469.9421,793.3
470.0397,128.4
470.2174,897.2
470.2578,304.7
470.476,21.1
470.5331,332.5
470.9235,16655.9
470.9734,110.9
470.9952,3026.8
471.2224,216.8
471.9778,116.1
472.3552,219.6
472.3735,1018.1
472.4597,425.6
472.5596,128.2
472.5962,243.2
472.6985,148.7
472.9211,3830.4
473.0032,170.8
473.0324,486.3
473.0476,2463.8
473.0685,876
473.2644,4356.1
473.3723,20.6
473.5973,194.6
473.6352,817.5
473.7422,870.9
473.7953,174.8
473.8459,307.8
473.879,192.3
474.1837,725.1
474.1986,133.4
474.2487,168.9
474.3081,224.7
474.5995,660
474.9251,539.6
475.0419,160
475.099,749.4
475.2224,28908.8
475.5943,669.6
475.7019,332.8
475.7979,539.8
475.8172,141.5
475.9047,619
475.9139,140.4
476.1457,150.2
476.1703,289
476.2259,4644.1
476.2567,315.6
476.8266,19.1
476.8579,312.4
476.9201,164.5
476.9281,126.5
476.9405,51869.7
477.3264,1008.4
477.7148,191.5
477.8239,26.2
477.8364,262.9
477.9442,3187.2
478.2808,22
478.3293,75018.7
478.432,326.7
478.6878,22
478.9377,15654.3
478.9943,191.1
479.0379,636.6
479.0965,24.6
479.1392,295.2
479.3328,12960.2
479.3864,723.3
479.7636,155.3
479.8268,21.5
479.9407,523.4
480.0521,214.5
480.2085,34
480.3449,278.5
480.4858,637.3
480.5192,155.2
480.5522,119.9
480.6447,231.9
480.766,26
480.7791,483.8
480.8725,16.8
480.9523,1816.7
481.0364,828.8
481.0914,2283.9
481.1591,868.3
481.185,18.9
481.233,1394.1
481.2552,124.8
481.4055,23.4
481.8856,408.5
482.0931,632.8
482.123,19.6
482.2357,1117
482.3243,2408.9
482.3607,2350.9
482.4463,22.3
482.4803,324.8
482.519,614.6
482.6095,225.2
482.7471,153.6
482.885,569.5
482.9324,1024.2
483.0867,98.7
483.2484,153158
483.346,342.5
483.4269,19.3
483.5621,347.9
483.6085,367.1
484.0287,21.9
484.1443,741.2
484.2517,31641.4
484.5394,189.1
484.6335,455.7
484.8312,177.6
485.0616,143.9
485.1035,522.2
485.142,125.4
485.1705,221.3
485.2641,143118.8
485.3657,136.7
485.8677,29.2
485.9971,500.8
486.0879,730.4
486.2674,30541.6
486.4458,189.7
486.5447,183
486.6799,21
486.7984,187.1
486.8186,235.1
486.897,1369.2
486.9134,332.1
487.0182,155.4
487.1052,224.4
487.1275,778.7
487.2253,273.4
487.2797,112730.9
487.3236,32.2
487.5535,918
488.043,172.2
488.2831,26917.3
488.3197,310.1
488.4022,128.7
488.5029,455.3
488.5135,158.1
488.8164,18.6
489.0226,434.1
489.0559,58.8
489.151,586.8
489.223,259.6
489.2853,3067.2
489.3165,22.9
489.3536,774.1
489.3732,924.5
489.3974,1139.5
489.4875,167.7
489.5774,18.4
489.7159,158.1
490.1104,211.5
490.2786,136.8
490.2907,3796.2
490.3223,629.6
490.6957,599.2
490.7385,19.2
490.7982,18.5
490.9208,24
491.1857,216.7
491.3495,507.2
492.148,191.6
492.6584,393.2
492.6781,705.3
492.9144,8419.4
493.0097,191.9
493.1256,267.8
493.2934,177.2
493.4382,376.8
493.7537,684.6
493.868,245.4
493.9588,1007.9
494.2095,121.4
494.2342,808
494.2854,426.4
494.3242,13186.1
494.5918,20.8
494.6634,777.9
494.9116,3330.9
494.9262,130
494.9668,430.8
495.2608,149.1
495.4473,215.3
495.6055,444.4
495.8174,732.5
495.923,459.2
495.9394,184.6
495.9936,314.9
496.0631,143.2
496.2306,172.8
496.34,524503
496.6824,409.2
496.7981,215.6
496.844,32.4
496.9307,792
496.9774,205.8
497.1627,535.2
497.3433,122116.5
497.5021,129.9
497.5171,21.4
497.9784,167.7
498.142,122.4
498.3181,144.1
498.3467,8492.9
498.5503,415.8
498.5718,223.8
498.8284,413
498.9278,953.9
498.9503,17.1
498.9658,18.3
499.1756,416.4
499.2223,7101.9
499.4355,258
499.6347,160.3
499.7937,20.6
500.0214,402
500.0574,113.1
500.1595,152.5
500.1903,22.9
500.2238,180.7
500.255,244.6
500.2746,1456.3
500.558,23.1
500.6338,841.6
500.6927,430.3
500.8121,133.3
500.9699,136
500.9851,782.5
501.2376,7714
501.2581,1058.4
501.3074,317.6
501.4363,363.6
501.5365,19.8
501.7443,123.7
501.8385,341.3
502.2051,310.2
502.2919,2638.6
502.3293,32215.2
502.9931,192.9
503.0067,409.9
503.1056,597.3
503.2537,4913.9
503.3332,5358.4
503.4531,834.1
503.5179,505.5
503.5613,509.2
503.7616,139.8
503.8395,144.9
504.0822,446.7
504.1082,21.2
504.3071,703.6
504.3447,14591.5
504.8999,178.4
504.9764,146.4
505.0347,350
505.1045,34.2
505.2328,836.2
505.2811,27.4
505.32,165.4
505.3486,529.8
505.557,315.4
505.7892,231.1
505.8779,19.3
505.8909,781.4
505.9355,437.5
506.2653,643.5
506.3037,123.2
506.3607,7934.7
506.398,430
506.6144,282.3
506.7427,27.6
506.868,23.1
506.8913,3155
507.1111,856.6
507.2483,33769.9
507.3175,137.8
507.3635,81.2
507.3747,876.3
507.5295,302
507.7233,20.4
507.9626,661.6
508.0109,347.8
508.2519,8345.6
508.3527,182.8
508.3751,927.6
508.6012,20.4
508.6185,20.3
508.7151,544.4
508.7345,328.9
508.888,1954.2
508.967,365.6
509.0047,3096.3
509.1598,348.4
509.2641,13082.6
509.4506,883
509.5724,276
509.6152,468.4
509.7174,420.6
509.7329,196.4
509.7459,217.8
509.9329,133.4
510.0817,799.2
510.2134,726.8
510.2668,2063.6
510.3558,1937.3
510.7484,128.3
510.7821,343.8
511.1461,302.7
511.279,979.4
511.3409,204.3
511.374,292.7
511.6448,24.4
511.9696,1356.5
512.0612,705.3
512.1821,177.1
512.3336,569.4
512.4484,396.3
512.4756,115.5
512.5579,123.1
512.6225,748.9
512.6266,726.3
512.8131,583.4
512.9085,12332.2
512.9269,784.6
513.2958,613.3
513.4013,297.9
513.4138,32.6
513.8539,693.3
513.9111,420.3
514.3003,152.2
514.4723,187
514.9053,6573
515.0245,244.5
515.0656,308.1
515.1199,136.4
515.6133,399.9
515.6899,993.3
516.0574,904.9
516.1953,20.1
516.2836,303.4
516.3063,22511.9
516.3574,253.2
516.4328,532.4
516.4834,234.8
516.4908,234.2
516.5891,127
516.5934,125.2
516.7597,151.9
516.9202,1270
516.9513,444.7
517.215,469
517.3106,1802.6
517.3297,140
517.3644,122.1
517.4,435.6
517.4488,250.6
517.678,33
518.2768,172.7
518.3219,828655.6
518.6791,154.3
518.9252,27215.3
519.0965,139
519.3253,202924.1
519.6945,129
519.7216,191.9
519.9287,670.7
520.0124,219.6
520.0869,432
520.1488,618.3
520.3399,139015.1
520.7971,20.9
520.8453,334.2
520.8722,20.8
520.9225,13580.8
521.3311,613.2
521.3432,32774.8
521.3872,572.5
521.4275,1173.5
521.439,39.2
521.726,691.1
521.8659,130.3
521.926,1014.4
521.9349,422.6
521.9773,467.4
522.0078,147.9
522.3556,150025.9
522.6004,412.6
522.6394,667.6
522.7549,19.8
522.7816,165.3
522.9186,417.1
522.9371,4205.2
523.0035,17.9
523.062,145.2
523.2226,1108.4
523.2338,19.3
523.3589,36531.8
523.5241,1334.9
523.7148,444.5
523.8066,665.2
523.8591,147.1
523.9418,889.1
523.9643,486.8
523.9972,18.6
524.0539,830.9
524.1047,151.5
524.1159,135.2
524.1383,664.9
524.1522,985.1
524.1745,1095.3
524.1974,418.4
524.2492,250.2
524.2919,301.3
524.3322,247
524.3712,137741.8
524.4152,350.2
524.5057,139.5
524.562,491.5
524.7661,687
524.9253,858.6
524.977,448.5
525.1903,199.6
525.2503,22.1
525.3746,35057
525.5481,215.8
525.593,182.5
525.7607,20.9
526.1421,19.2
526.1723,1420.9
526.3293,7826.9
526.3769,690.7
526.5529,144.7
526.7081,691.6
526.7265,285.2
526.9487,732.4
527.2045,138.1
527.2933,767.4
527.9434,219.5
528.0445,357.6
528.3448,1156.6
528.4042,146.3
528.5,140.9
528.5138,330.3
528.6145,19.1
528.6817,321.9
528.7322,174
528.882,6596.9
528.9539,3894
529.0227,372.9
529.1639,361.2
529.1892,162.5
529.2247,542.9
529.2427,211.1
529.3082,701.6
529.7108,153.8
529.7648,222.2
529.8467,277.2
529.9189,302.3
529.9715,195
530.1699,357.7
530.3231,718.3
530.358,857.8
530.7148,710.3
530.7462,649.3
530.8798,3884.2
530.9904,852.3
531.1442,1020.5
531.1577,339.1
531.2235,222.7
531.2483,3498.4
531.5816,154.2
531.7321,20.6
532.2801,4223.6
532.3375,8977.1
532.5075,355.3
532.5596,156
532.6507,876.2
532.721,292.1
532.7941,35
532.9654,1155.8
533.0532,20.7
533.2834,453.3
533.3413,1315.4
533.4541,159.5
533.586,411.7
533.6814,717.2
533.8378,351.4
533.8465,800.2
533.863,147.1
533.9896,307.3
534.1988,796.8
534.2959,229668.3
534.3164,1541.6
534.7802,209.6
534.812,754.4
534.8992,18783.6
535.0147,136.5
535.2993,55010.3
535.4217,247.1
535.5023,553.6
535.5707,734.8
535.8018,191.2
535.9025,645.7
535.9888,255.2
536.0415,201.7
536.1105,170.6
536.1712,346.8
536.2943,12683.4
536.3821,764.7
536.7273,144.9
536.8966,11665.7
537.1683,167
537.2976,1288.4
537.3435,435.2
537.4668,21.8
537.5808,220.2
537.661,118
537.7807,20.1
537.9493,939.1
538.1111,184.5
538.5307,31.1
538.5907,439.3
538.6226,493.9
538.6582,496.9
538.8926,2611.5
538.9111,2471.5
538.9309,2423.7
538.9438,129.8
538.9536,37.2
538.9821,1038.3
539.1441,21.8
539.2466,19.3
539.3204,236.9
539.405,116.3
539.8007,19.6
539.9261,724.6
539.9469,218.5
539.9913,388.2
540.16,359.2
540.2349,368.7
540.3312,214.5
540.4519,20.8
540.4737,791.8
540.5991,417.5
540.7813,167.7
541.0497,968.5
541.2071,424.5
541.2921,347.9
541.8164,497.5
542.074,656.3
542.2482,17.2
542.3219,194380.7
542.46,447.1
542.6485,306.6
542.9971,916.9
543.3253,53054.7
543.4078,674
543.4616,475.6
543.9318,165.3
544.0496,281.7
544.2435,18.6
544.2727,1764.3
544.3377,216593.2
544.5119,586
544.5409,139
544.791,348.1
544.8554,778.9
544.9479,1060.9
545.1197,224.4
545.341,50397.2
545.4534,433.6
546.1115,228
546.2592,688.2
546.3533,212743.3
546.384,22.5
546.4472,547.9
546.5302,20.7
546.9876,19
547.219,222.7
547.3565,56266.4
547.3935,171.1
547.4584,214.7
547.723,360.8
548.1726,25.8
548.3118,1623.9
548.3602,4161.2
548.4661,20.2
548.5042,112.9
548.6569,167.6
549.1118,275.9
549.47,776.9
549.765,228.3
549.7879,1310.5
550.4823,530.2
550.5672,147.7
550.6535,129.9
550.8609,542.8
550.8738,3515.5
551.2103,321.2
551.5222,136.8
551.6327,302.6
551.7669,497.6
551.9657,731.4
552.1834,895.9
552.4998,311.8
552.871,1840
553.3645,120.6
553.9195,112.5
554.4043,505.2
554.557,450.8
554.7704,34.3
554.8687,402.2
554.9063,916.3
555.222,661.5
555.2417,417
555.2823,297.3
556.1129,318.8
556.1462,225.5
556.3305,675.5
557.0917,31.2
557.2788,184.3
557.3206,219.6
557.5043,21
557.9677,279.9
558.1031,161.1
558.2739,21.4
558.2959,58883.2
558.7543,398.1
558.9261,20.6
559.0001,527.1
559.1409,189.2
559.2994,12229.2
559.763,190.7
560.3115,59905
560.4131,539.1
560.439,154.1
560.7333,177.7
560.7787,133.1
561.1332,223.6
561.315,12203.2
561.3968,23.8
561.454,143.6
561.967,214
562.0832,578.8
562.2041,208.5
562.3272,58251
562.4027,597.3
562.8131,176.2
562.9969,563.8
563.1864,620.8
563.253,215.2
563.3304,11598.9
563.5705,214.9
563.7279,21.9
563.9886,277.5
564.0509,168.7
564.1479,376.8
564.3044,759.2
564.3261,1192.2
564.4786,247.8
564.6848,347.4
564.7364,403.7
565.0432,588.1
565.1457,168.9
565.2293,141.6
565.3722,19.7
565.6379,361.3
565.7143,374.8
565.8582,125.3
566.1311,600.5
566.1874,861.1
566.2413,21.2
566.322,42419.7
566.4469,633.8
566.7371,170.7
566.7674,443.6
566.9756,238.3
567.0631,180.4
567.3256,11691.3
567.3583,574.7
567.4141,200.4
567.6209,394.6
567.9897,198.5
567.9968,195.6
568.0795,563.7
568.3374,19399
568.3788,197.3
568.8935,731.3
569.009,960.7
569.0203,43.4
569.3412,4183.5
569.7266,199.1
569.7553,391.1
569.8962,663.1
569.9214,353.3
570.355,676.2
570.4278,248.5
570.8673,2215.8
570.9463,440.6
571.0595,607.5
571.2956,524.8
571.4438,756.8
572.0084,20.8
572.3665,1716.6
572.4526,238.8
572.864,2007.8
572.9783,318.2
573.195,674.3
573.6758,466.7
573.7247,551.5
573.9631,375.7
574.4394,228.4
574.5614,207.6
574.7022,21.2
574.8598,1051.2
575.2875,266.7
575.5037,22607.2
575.5926,392.5
575.9864,20
576.1548,362.4
576.2554,1002.7
576.2806,6557.8
576.5067,1256.2
576.6346,230.3
576.8541,642.9
576.884,10237.6
577.2179,20.7
577.2577,176.4
577.2848,1393.8
577.5186,2173.5
577.8867,612.5
577.92,346
577.9966,25.3
578.0954,306.9
578.2785,1896.1
578.4714,107.8
578.5221,39.2
578.5876,186.4
578.6237,378.5
578.7082,617.5
578.8808,7625.6
579.0341,202.8
579.3085,216.8
579.3906,126.6
579.4753,332.9
579.5181,365.8
579.692,437.1
580.0602,892.2
580.161,656.4
580.1877,149.1
580.7846,114.9
580.8774,2783.3
580.8955,1275.6
580.9136,359.2
580.946,719.2
581.225,387.6
581.4046,184.7
581.4777,30
581.5433,204.3
581.7602,433.4
582.0933,186.6
582.1195,208.2
582.2652,1294
582.2956,12864.9
582.314,1153.8
582.343,378.3
582.3603,157.4
582.4019,526.4
582.4451,1298.1
582.5041,735.5
582.697,21.1
582.8938,1947.6
582.9123,21.6
583.0949,236
583.1878,632
583.2105,20
583.2547,3087.2
583.2796,176.9
583.2999,2037.3
583.4291,329.8
583.6632,158.7
583.847,444
583.8943,249.7
583.9596,170.9
583.9737,152
584.01,367.4
584.1137,195
584.2595,202.4
584.3117,3100
584.3615,22.2
584.5426,679.9
584.6226,523.6
584.6815,472.3
584.8295,23.7
585.0698,880.9
585.2706,7793.5
585.3776,210.4
585.5143,135.9
585.5593,26.8
585.6335,166.9
585.9381,158.7
585.991,1021.7
586.0326,296.7
586.1372,136.8
586.3093,3979.3
586.4477,336.8
586.4691,260.9
586.6298,225.7
586.6947,221.8
586.7752,203.7
586.8419,1759.4
586.9128,1053.7
586.9809,357.6
587.0225,128.6
587.2196,726.3
587.6309,515.1
587.7016,18.7
587.7322,444.7
587.7915,413.4
587.85,22.8
587.9887,245.9
588.1104,460.8
588.3159,502.6
588.5069,134.7
588.5919,358.9
588.8382,1861.3
588.948,156.1
589.061,574.6
589.5524,312.8
589.6107,146.2
589.6335,803.1
590.3229,2343.4
590.5265,804.8
591.1395,414.2
592.0964,1067.3
592.2549,555.8
592.6113,22.1
592.6605,251.5
592.8579,6784.5
592.9941,505.8
593.1334,473.2
593.6986,547.2
593.7048,534.5
593.8501,19.8
593.9768,235.2
594.06,211.1
594.1848,19.3
594.4887,219.5
594.6181,214.2
594.7277,305.8
594.8248,379.8
594.8549,5521.2
594.9516,129.4
595.0199,103.2
595.1938,279.8
595.2215,608.8
595.4841,402.9
595.6395,462.9
595.906,173.5
596.13,168.6
596.2226,708.5
596.3444,725.3
596.8524,1112
596.8694,484.8
597.1383,296.6
597.2913,670.4
597.4496,4283.7
597.4607,4267
597.4857,14283.3
597.622,190.2
597.9931,121.2
598.1982,121.4
598.3332,222.8
598.4054,659
598.4521,1538.9
598.4884,3935.1
598.9235,22
599.2246,116.7
599.3668,871.6
599.3902,200.2
599.4619,1229
599.4768,416.6
599.5033,4809.7
599.6854,213.8
599.7005,225.8
599.7249,21.6
599.8399,146.3
600.1452,429
600.2813,418.4
600.4006,32
600.506,666.7
600.7894,303.5
600.9977,508.1
601.3041,443.9
601.3259,889.8
601.5186,706
601.7279,119.4
601.9651,151.9
602.2373,233
602.297,741.5
602.5229,513.7
602.8158,392.2
602.9036,360.8
603.0787,566.2
603.1381,152.1
603.2861,22
603.3384,799.9
603.4697,578.4
603.5347,1629.8
604.3119,949.8
604.539,36.3
604.7745,523.3
604.8114,414.2
604.8561,234.4
605.2484,792.4
605.6162,273.6
606.2958,641.7
606.3086,608.6
606.7674,727.3
607.1656,175.3
607.2479,595.4
607.4086,975.9
607.884,537.2
607.8974,303.9
607.9998,20.1
608.0868,583.3
608.2256,452.6
608.3539,314.8
608.4717,158.6
608.8321,1430.9
609.3832,410.5
609.4617,288.6
609.557,20.3
609.648,231.5
610.16,115.6
610.3593,422.3
610.4629,701.7
610.6866,112.1
610.8028,28.8
610.8284,1396
611.105,344.3
611.2427,201
611.5078,186.8
611.9518,744.9
612.1882,120.8
612.3455,980
612.442,851.8
612.8228,460
613.0131,35.3
613.2443,503.1
613.3999,137.4
613.4274,1068.6
613.4983,533.3
613.5777,243.2
613.6694,155.9
614.2413,622.3
614.3248,289.5
614.5437,441.9
614.6258,150.4
614.821,363.9
614.8816,1234.4
614.9481,20.9
615.0696,181.8
615.2522,854.7
615.4563,30.9
615.918,661.4
616.4788,878.6
616.5585,712.8
616.6991,1033.2
616.7328,683.8
617.0279,190.6
617.1198,471.1
617.4441,19.2
617.476,1348
618.0104,191
618.1692,166.4
618.2713,266.1
618.3784,301.5
618.52,139.9
618.6026,155.6
618.7069,247.2
618.9828,908.6
619.0913,232.5
619.3505,382
619.4917,2477.3
619.5734,301.5
620.251,167.3
620.3527,984
620.7609,145.3
621.0129,178.2
621.2903,745.6
621.4537,3165.9
621.4851,9372
621.5465,35.6
621.7941,420.3
621.9138,596.9
621.9568,558.5
622.0357,465.7
622.4177,215.3
622.4591,1102.4
622.4892,4166.2
622.5256,160.1
622.7844,911.7
623.1361,5829.6
623.2478,905.3
623.473,997
623.5026,394.1
623.6974,369.7
623.7191,23
623.8678,546.8
624.2856,393.7
624.3577,23.9
624.476,642.7
624.5481,638.4
624.9106,269.3
624.952,113.8
625.0044,170.5
625.1262,851.7
625.2863,24.7
625.4023,244.2
625.4868,677.2
625.5205,983.1
626.0972,1076.2
626.1272,992.4
626.5954,448.3
626.9004,663.5
626.9833,166.1
627.0337,754.4
627.2327,18.9
627.3795,627.7
627.5354,707.5
627.6831,388.2
628.1372,26.7
628.3135,320.8
628.3461,566.9
628.3783,148.9
628.469,487.4
628.5463,137.8
629.1529,12523.3
629.209,222.1
629.439,412.8
629.5585,32.5
629.6354,152.2
629.8563,195.5
630.1575,507.2
630.1878,234.1
630.9399,810.4
631.1517,352.3
631.6991,610.4
632.0544,171.4
632.4465,171.2
632.9603,234.4
633.1124,852
633.5165,652
634.3611,701.2
634.4218,619.1
634.4426,115.2
634.4799,653.7
634.7689,292.9
634.8428,1456.6
634.8653,19.9
634.9503,195.4
635.0135,666.9
635.0491,220.8
635.2289,523.3
635.323,206.5
635.5129,731.5
635.6275,244.4
635.8957,453
636.4244,217.4
636.8399,3533.4
636.9368,181.7
637.3614,669.4
637.7692,595.9
637.9444,120.8
638.1902,402.4
638.2131,20.7
638.2731,429.4
638.2862,304.4
638.453,1024.9
638.6035,132.7
638.8459,193.5
639.216,18.2
640.2399,753.8
640.252,779
641.0319,608.4
641.1183,169
641.2676,1078.3
641.3082,19.9
641.985,20.5
642.054,214.9
642.2662,297.2
642.6183,163.7
643.1958,297.8
643.5037,123.6
643.697,132.1
644.2229,196.1
644.6511,182
644.6934,177.9
645.0066,203
645.0775,800.5
645.1178,6221.8
645.323,647.2
645.3752,567.8
645.4751,593.9
645.6514,20.1
646.0134,233.2
646.3221,662.1
646.4282,2995
646.6941,250
646.7934,430.8
646.7974,442.1
647.3423,689.1
647.4134,161.7
647.4837,127.5
647.9183,136.8
647.9726,23.4
648.1337,213.7
648.3827,955.7
648.4829,1142.9
648.6406,140.1
648.9945,128.1
649.0991,587
649.794,154.1
649.8025,160.8
649.8203,143
650.0273,346.5
650.1502,28.7
650.3643,162.8
650.4388,3924
650.5022,18.9
650.8158,1333.6
651.1016,220.6
651.1348,24246.8
651.537,721.6
652.0111,235.3
652.1385,1766.6
652.2991,145.5
652.3931,591.9
652.443,520.9
652.8142,1862.7
653.0605,180
653.731,339
653.8573,18.7
653.8729,286
654.2454,22.3
654.2943,590
654.7284,581.1
654.7485,939.8
654.7657,1120.4
654.8108,904.7
654.8561,488.2
655.0662,20.5
655.2256,322.4
655.759,198
655.7758,196.3
655.981,1105.4
656.193,18.5
656.5962,191.5
656.611,393.7
656.669,211.5
656.7369,593.6
656.7738,217.8
657.0291,153.3
657.1537,138.3
657.21,27.3
657.3187,277.7
657.3854,34.2
657.7062,198.1
658.1319,600.8
658.2067,22.2
658.3945,837.6
658.4487,162.5
658.5568,347.6
659.1286,734.5
659.2851,510.4
659.4941,713.9
659.8296,381.6
660.0293,181.7
660.0846,1218.5
660.377,802.8
660.4044,1086.2
660.7376,785.7
660.8837,366.6
660.9721,203
661.0831,3297.6
661.2515,25
661.4683,284.3
661.519,381
661.9432,230
662.1335,207.2
662.2592,227
662.8186,23
662.9287,191.4
663.322,149.6
663.4543,533.4
663.8471,149.1
663.8548,194
663.8623,169.6
664.1265,864.4
664.1461,294.5
664.2208,19.1
664.3397,367.9
664.4491,334.2
664.4677,5803.8
664.58,300
664.7435,392.2
664.8894,532.2
665.0762,270.2
665.1744,801.6
665.2465,248.6
665.7005,509.8
665.7389,137.3
665.8066,166.2
665.875,146
666.2966,31.4
666.4836,10749.9
666.8431,853.8
667.0994,16722.6
667.401,212.9
667.4869,1476.2
667.5269,255.1
668.0646,178.2
668.1122,608.8
668.143,177.1
668.1879,295.2
668.3275,480.6
668.8052,393.5
668.98,335.9
669.4089,459.2
669.5088,472.8
669.8443,20.7
670.3936,230
670.4594,397.2
670.4977,708.8
670.5378,30.8
671.1579,154
671.5763,361.8
671.6382,21.1
671.7031,341.3
672.3529,281.8
672.4211,2362.5
672.4477,18.6
672.7221,343.3
672.7574,183.4
673.1167,39504
673.1828,202.5
673.2098,461.7
673.4235,1143.9
673.954,1025.9
674.1201,6977.2
674.3932,237
674.4997,452.2
675.4911,29.7
675.5442,18811.9
675.5842,495.4
675.8988,880.9
675.9075,1099.3
675.9212,632.2
675.9889,146
676.0161,173.7
676.0474,2204.3
676.16,20
676.3364,216.8
676.5479,2576.7
676.5723,34.9
676.9012,179.1
677.0581,348.6
677.3338,239.3
677.5071,19.7
677.5699,406.1
678.2085,342.1
678.4709,151.4
678.5222,228.1
678.7666,603.9
679.1375,588.3
679.3962,159.4
679.6129,683
680.0687,212.6
680.2452,138.5
680.3872,202.6
680.4964,744.1
680.5343,499.4
680.5812,250.1
680.7121,18
680.7469,335.1
680.7721,163.3
681.1154,354.4
681.282,318.8
681.6346,317.5
681.8201,794.2
682.0647,7957
682.4524,805
682.8033,408.6
682.8768,169.5
682.9948,115
683.065,732.9
683.2376,284.2
683.2437,335.2
683.2979,287.2
683.4508,765
683.4811,441.8
683.8493,762.4
684.5137,156.7
684.6445,204.3
684.7007,140.4
684.8391,558.7
685.0948,331.9
685.303,679.1
685.4361,7071.8
685.5918,649.9
685.6747,199.5
685.7105,32
686.2081,301.4
686.3118,424.9
686.4389,1161.2
686.5237,596.3
686.549,412.2
686.6933,578.5
686.7781,323.8
686.8694,306
687.0038,1004.5
687.2278,377.4
687.3528,358.4
687.8753,238.5
687.9399,19.3
688.1465,522.6
688.1813,351.3
688.4027,335.3
688.4147,1002.7
688.4971,584.5
688.9251,307.6
688.9422,20.5
688.969,691.4
689.0813,14933.3
689.4058,113
689.4233,116.2
689.5596,5530.9
689.8737,188.3
689.9371,150.4
690.085,464
690.285,119.4
690.4287,396.2
690.5644,1583.3
690.8166,328.3
690.971,422.4
691.0592,562.6
691.0877,165.5
691.3857,318.8
691.5026,420.3
691.6932,422.6
691.9113,18.8
691.9531,330.3
692.1591,404.9
692.3802,809.7
692.416,134.5
693.0071,308.7
693.0913,240.5
693.1502,925
693.2356,297.5
693.3946,468.5
693.6415,750.1
694.0615,459.5
694.1224,288.7
694.1502,392
694.2417,612
694.3561,159.4
694.5794,219.5
694.8102,32.1
695.0988,30158.9
695.4636,1294.8
695.4867,475.4
695.5101,3038.1
695.8832,363.9
695.9151,20
696.1021,5297.6
696.2127,148.8
696.3671,186.6
696.4605,716.1
696.5132,595.7
696.7465,172.7
696.7928,454.9
697.1037,183.6
697.526,29403.7
698.0287,2021.8
698.0603,303.7
698.5299,8253.8
698.9406,148.1
699.0279,609
699.0468,183.1
699.0717,724.8
699.3604,166.7
699.5327,1121.4
699.6395,186.1
700.3561,555.8
700.4149,972.7
700.4537,1040
700.4902,807.9
700.5979,118.7
700.7892,569.9
700.8849,303.6
701.0088,228.6
701.1415,138.9
701.4138,496.2
701.4546,21.8
701.5266,153.8
701.5597,50973.2
702.3424,6268
702.5629,19969.6
702.687,249.4
702.9429,1004.7
703.2305,167.3
703.5755,129580.6
703.7286,905.1
703.8783,301.2
704.0466,7659
704.2254,372.5
704.4478,6392.3
704.5789,49913
704.6073,212.8
704.6412,329.2
704.7576,337.2
704.8065,138.1
704.8293,388
705.0479,2517.6
705.3977,471.7
705.4553,552.3
705.5812,6966.2
706.2981,302.6
706.5389,1697.6
706.7979,399
707.059,149.6
707.2699,461.7
707.7069,108.1
707.9847,670.1
708.1058,831.2
708.5336,221.8
708.5783,1175.9
708.7455,352.4
708.7741,878.5
709.0707,618
709.3195,535.2
709.382,1090.1
709.4067,390.7
709.5593,173.5
709.7455,210.6
710.1988,329.8
710.6336,286.9
710.7709,927.9
711.064,9218.7
711.0734,11673.9
711.2723,257.6
711.5419,9043.4
711.9351,30.1
712.0764,890.6
712.3216,326.8
712.3561,236.8
712.5459,1829
712.6197,413.3
712.8772,188
712.9499,747.7
713.2782,22.2
713.5052,601.5
713.5658,178.5
713.8718,182.9
714.0042,177.1
714.2465,667.6
714.3015,377.8
714.3223,20.5
714.4881,297.9
714.5749,213.7
714.6584,216.3
714.9384,758.3
714.9697,595.3
715.4414,20.5
715.6453,124.4
716.1055,168.3
716.5089,149.1
716.5355,34.7
717.0806,18318.1
717.6265,280.4
717.8815,226
717.9485,238
718.0844,684.5
719.2816,29.9
719.4633,2226.2
719.6329,18.7
719.7028,144.4
719.8512,427.2
719.8561,402.9
719.9803,134.2
720.0217,1952.6
720.1222,810.1
720.229,201.9
721.0133,833.7
721.0933,555.1
721.39,311.3
721.4523,207.3
721.4784,91735.7
722.4818,38449.6
722.6837,301.5
722.9389,660
723.0279,147.5
723.1557,148.3
723.4102,361
723.4554,897
723.495,14053.7
723.5416,57052.4
723.9101,18.1
724.2335,315.1
724.3232,1026
724.465,20.6
724.4988,1981
724.5455,20328.3
725.2226,24.1
725.5061,1008.9
725.5575,128303.5
726.0287,5205.5
726.2063,122.5
726.5085,1104.4
726.5608,48821
726.6824,336.7
727.0333,1972.1
727.2023,206.1
727.5637,4349.2
727.7511,323.5
728.0348,879.4
728.2943,20.3
728.3971,245.2
728.5207,2859.8
728.7573,125.4
728.8736,187.6
729.4717,603.9
729.5247,349.2
729.591,13478.5
729.6815,378.4
729.8629,597.5
729.9645,931.5
730.38,132.2
730.5387,18456.7
730.5944,2138.6
730.7966,155.2
731.5422,3439.8
731.5674,603.7
731.6072,9507.4
731.8564,583.9
731.9983,935.7
732.1965,151.3
732.3888,23
732.4776,1650
732.5546,81826.6
732.6117,2044.4
732.9344,610.6
733.0453,5334.4
733.0545,4857.3
733.1065,283.9
733.3271,145.2
733.5579,33824.3
733.657,441.1
733.7435,728.9
733.9501,191.9
734.0616,711.6
734.194,693.1
734.2414,465.6
734.3208,368
734.5711,8019.2
734.9911,20.3
735.0704,869.1
735.1651,427.3
735.2177,152.6
735.5255,470.3
735.5739,1455.5
735.7009,366.4
735.9628,453.6
735.9849,192.3
736.0854,224.6
736.5069,595.1
736.572,474.1
737.1339,274.3
737.3653,956
737.397,1144.7
737.4528,21222.9
737.6515,790.5
738.0028,784.1
738.0372,802.6
738.1244,36.5
738.1879,20.6
738.2497,110.2
738.3481,1091.4
738.3755,226.5
738.4553,4485.9
738.4935,350.2
738.9361,831
739.0624,10664.8
739.0988,766.9
739.1432,159.8
739.1854,365.9
739.39,187.3
739.422,619.8
739.4678,2740
739.5155,3946.1
739.5802,177.9
740.0654,450
740.4717,223.4
740.9452,125.2
741.0703,172.2
741.2864,148.8
741.5314,20162.1
742.0037,777.5
742.2943,681.4
742.3639,370.8
742.535,6975.7
742.5747,4626.8
743.0131,1024.4
743.1721,320.9
743.4656,320
743.5788,573.8
744.1046,156.8
744.4416,147.3
744.5558,2447.6
744.5913,5605.3
745.2271,826.1
745.4786,39648.3
745.5583,1593.8
745.5942,602.9
745.8759,373.9
746.0639,295.1
746.2791,183.1
746.4813,18247.1
746.5364,155
746.571,2995.2
746.6074,1530.1
746.7733,244.8
746.9642,137.7
747.0538,153.7
747.116,563.8
747.2627,454.7
747.4946,16772.7
747.5733,636.3
748.0105,2308.4
748.1417,109.3
748.1695,237.7
748.2731,330.5
748.4965,1722.1
748.6139,324.1
748.6417,18.6
748.7206,411.6
748.7577,198.5
748.8672,248.6
749.0104,1921.2
749.2224,18.8
749.4012,134.6
749.4387,24.7
749.4711,147.6
749.5102,6154.6
749.7832,396.1
750.0217,223.2
750.2391,270
750.513,231
750.6958,856.2
750.8279,429.7
750.9482,164.1
751.0336,379.5
751.1216,445.4
751.1491,118.6
751.5727,8615
751.8795,416
752.0758,19.8
752.1114,124.3
752.2136,224.4
752.31,471.2
752.5211,17488.2
752.5755,1474.6
752.7801,166.9
752.8343,404.8
753.0977,190
753.1384,21.9
753.1993,682.9
753.3002,909.8
753.4456,177.5
753.5233,6266.1
753.5889,3196.9
753.7,604.2
753.8283,683.9
754.5365,73044.6
754.836,429.1
754.9393,20.1
755.0262,3607.9
755.0377,3758
755.5399,30952.9
755.7865,370.2
755.9696,20.2
756.0724,19.1
756.5092,18.3
756.5544,65352.9
756.6254,266
756.7391,227.1
757.1308,630.7
757.274,724
757.5577,28970.2
757.6201,1193.7
757.8014,176.2
757.9769,21
758.3958,160
758.5702,1543098.9
758.6936,190.9
758.756,317.5
758.8744,182.1
758.9474,202.6
758.9775,130.1
759.1871,181.7
759.5112,111.8
759.5736,690367.8
759.6056,820
759.6319,1039.1
760.3244,204.2
760.5869,490025.5
761.0444,2928
761.4527,7741.5
761.5165,1044.6
761.5896,236549.4
761.68,225.5
762.4203,347.3
762.5925,56420.7
762.8725,360.7
762.9568,579.2
762.987,607.6
763.2397,169.2
763.4689,996.2
763.5955,3281.1
763.8166,19.6
763.9739,435.6
764.1042,1183.7
764.2242,19.9
764.2916,172.4
764.4029,281.4
764.4865,205.8
764.5569,2071.4
764.7314,523.7
764.9863,211.7
765.0911,46.4
765.228,27.5
765.3451,713.9
765.4844,190.1
765.7634,525.1
765.8907,17.3
765.9902,229.9
766.2101,722.3
766.4589,277.9
766.5361,4260.6
766.575,28738.1
766.9187,169.3
766.9863,213.9
767.2009,326.4
767.5783,11683.7
767.6633,264.8
767.819,572.4
767.9708,917.1
768.0595,19.1
768.089,19.2
768.4952,1176
768.5518,2768.3
768.5912,43536.8
768.6575,171.9
769.0011,294.3
769.2268,848.6
769.4761,4279.1
769.594,17766.7
769.6671,34.8
769.7239,318.2
769.7834,393.5
769.8121,124.9
770.4838,1429
770.5101,9014.6
770.5718,758.2
770.6085,3625.3
770.9923,5553.8
771.1077,698
771.5141,1930.8
771.5712,827.6
771.611,1201.4
771.6335,799.5
771.7535,159.5
771.775,17.7
771.9417,204.3
772.1217,745.6
772.2796,245.2
772.5861,18957.3
772.6878,618.7
772.8569,902.6
773.031,773.6
773.0854,174.3
773.4689,378.5
773.5112,1434.1
773.5891,3339.2
773.6549,35.3
773.9948,316.8
774.1582,203.5
774.4744,139.5
774.6022,1371.9
774.8694,210.7
774.9504,881.5
775.2589,22.6
775.5244,166.3
775.6038,702
775.9248,719.3
775.9754,347.7
776.0985,559.7
776.2938,617.4
776.3424,398.3
776.5235,1626.5
776.6118,640.9
776.648,557.1
777.0082,3947.9
777.2414,322.2
777.5238,973.3
777.5453,2656.7
777.8127,819.1
777.9663,326
778.0196,721.1
778.0453,1928.7
778.1613,749.6
778.4083,149.3
778.5366,53236.7
778.8703,177.8
778.975,133.6
779.0844,348.1
779.3214,628.6
779.3737,442.7
779.5399,20560.7
779.8834,147.6
779.9483,451.5
779.9883,1063.3
780.3847,678.4
780.5229,666.9
780.5521,1053933.9
780.5954,150.7
780.7337,460.2
780.817,863.9
781.0171,326.6
781.336,134.1
781.5104,432
781.5556,468929.3
781.6198,789.5
781.8204,197.5
781.9523,1164.2
782.1384,136.9
782.2949,512.5
782.4978,217.6
782.5094,189
782.5698,947062.4
782.6214,351.5
782.6466,34.3
783.0282,2966.3
783.5731,458631
784.0584,308.2
784.5866,422930.6
784.6915,596.2
785.014,204.2
785.2979,150.6
785.46,1239.2
785.5897,206383.1
785.6543,4315.7
786.031,686.1
786.13,606.3
786.4787,212.4
786.6023,317030.8
786.6556,462.8
786.6959,312.2
786.7531,127.7
786.8081,112.6
786.8737,19.5
786.9593,191.1
787.0751,528.8
787.1839,619
787.4342,17.6
787.6052,152706.4
787.6713,823.2
788.0125,181.3
788.2863,840.9
788.466,763.2
788.5573,16428.4
788.6054,27346.6
788.6214,9706.6
788.9878,204.2
789.0765,18.2
789.2533,319.3
789.3867,118.6
789.5469,933.7
789.6222,5664.1
790.0217,124.3
790.045,2620.3
790.5495,1922.8
790.5733,21872.9
790.6343,472.3
790.6649,521.3
790.7192,656.3
790.8084,476.5
791.5759,4398.4
791.6157,731.1
791.9125,524.9
792.0553,597.7
792.3859,214.3
792.556,42.2
792.5903,7891.3
792.8723,160.5
792.9826,1960.8
793.5944,239.2
793.8052,527.2
793.8572,565
793.9229,513.6
794.0728,731.9
794.1404,192.6
794.5109,8890.2
794.5681,7538.6
794.6068,37951.9
794.804,149.1
794.9687,596.4
795.2726,703.6
795.3271,1353.8
795.4657,411.2
795.5149,2631.6
795.5429,29.1
795.5693,886.6
795.6098,12730.5
795.7571,229.5
796.1874,617.8
796.526,213949.2
796.586,5246.1
796.6244,4494.9
796.7029,221
796.9797,541.5
797.1536,140.1
797.5293,94208.6
797.6286,601
797.748,241.2
797.9783,1232.1
798.4047,432.9
798.5429,50676.3
798.6025,1745.2
798.6868,188.4
798.9424,134.8
799.0008,627.2
799.4702,19.6
799.5451,28096.3
799.5711,1315.4
799.672,532.1
799.7625,972.2
799.7913,243
800.158,671.3
800.5529,1112.6
800.6737,203.1
800.7213,212.3
801.0475,367
801.4023,1027.7
801.4971,656.4
801.5542,127.1
801.6954,551.4
802.2441,140.7
802.5361,37109.8
802.7329,155.3
802.832,1012.2
803.402,210.2
803.5403,15044.5
803.6976,430.4
803.7251,329.9
803.751,725.8
803.936,225.8
804.3548,171.1
804.5522,458143
804.9436,424.4
805.4973,18.2
805.5554,225895.4
805.9021,221.5
806.0291,496.7
806.1768,762.2
806.2727,152.9
806.4888,244.8
806.5692,377261.3
807.125,160.9
807.3655,493
807.4766,379.6
807.5724,181041.1
807.6439,276.2
807.8947,329
807.9103,227.6
808.0563,18.4
808.0882,30.1
808.1724,30.9
808.5853,238552.2
808.7995,31.1
808.9217,160.9
808.9961,424.7
809.5053,214.5
809.5883,121566
809.6478,475.9
809.8602,978.2
810.2908,712.3
810.3251,312.9
810.6022,153153.2
811.6052,79213.7
811.6699,10657.7
811.7217,483.6
811.7357,447.3
811.7652,663.7
812.12,227.6
812.5289,321.6
812.5563,615.7
812.6039,4374.8
812.6196,24755.9
812.6733,2122.8
812.9168,232
812.9428,737.8
813.453,446.3
813.6216,11385.1
813.6862,6108.9
813.7113,363
814.0932,649.5
814.4671,576.7
814.6234,1743.9
814.6879,1711.2
814.7623,544.8
814.9545,228
815.0465,130.2
815.7287,470
815.9165,230.8
816.0105,345.7
816.5007,624.7
816.5883,17316.1
816.872,403.5
817.0471,23.9
817.1711,22.8
817.5914,5342.4
818.0958,230.2
818.2113,21.8
818.5112,5477.3
818.6062,722.4
818.7008,187.4
818.8336,20.8
818.9122,467.6
819.1489,324.3
819.6804,395.4
820.1792,198.2
820.526,98895.6
821.0758,158.4
821.189,166.3
821.5295,44158.4
821.65,194.5
821.6713,991.1
821.7183,708.9
821.7959,251.3
822.1306,544.5
822.3601,260.9
822.3863,1413.1
822.5427,46481
822.6894,404.6
822.7642,18.8
822.9693,201.2
822.9937,895.1
823.3914,24.4
823.4774,1069.7
823.5455,21201.4
823.6116,291.6
823.9242,156.1
824.0666,18.7
824.1644,17.5
824.2109,378.4
824.5581,30358.6
824.8458,20.2
825.2168,146.8
825.5609,11431.9
825.6735,537.9
826.2379,20.7
826.5363,1098.1
826.8503,350.8
827.0725,316.4
827.0959,1059.7
827.3589,587.4
827.8235,301.5
827.9867,502.5
828.5521,102080.7
829.3283,20.3
829.5555,45295.5
829.6042,33.7
829.8226,1055.6
830.2008,1442.7
830.5687,64519
830.6231,340.4
830.7397,493.9
831.0619,843.1
831.0839,923.6
831.3089,348.1
831.5183,35
831.5713,32249.9
831.9102,481.8
831.9289,186.6
831.9704,315.8
832.5842,78253.8
832.6511,148.8
833.0156,234.7
833.3339,581.1
833.5871,40350.2
833.651,868.7
834.6016,33450.1
834.7114,1030.8
834.8547,306.2
834.9403,189.2
835.3291,156.1
835.4051,21.4
835.4997,20.1
835.5498,359.4
835.6044,10318.1
835.6649,593.9
836.1833,290.6
836.3305,188.9
836.6193,2373.3
836.6483,19.6
837.6037,674.5
838.0041,575.3
838.2408,560.2
838.2692,215.2
838.3246,196.2
838.4517,17.8
838.5124,2838.2
838.9532,499.5
839.0886,1337.6
840.4211,446
840.507,370.7
840.6672,560.6
840.6956,177.4
840.8421,163.5
840.8819,813.7
840.9304,493.5
840.9589,21.6
840.9941,1052.7
841.6163,21.6
841.7685,995.7
842.0367,246.3
842.5174,623.2
842.7559,506.8
843.158,175.5
843.3061,216.9
843.9324,231
844.2249,300.9
844.3555,357.3
844.5262,18728.1
844.9941,185.6
845.0873,21.7
845.2936,474.6
845.5293,2580.7
845.6792,375.7
845.9007,465.4
846.1034,299
846.5429,7825.4
846.6586,125.8
846.7193,723.8
846.9708,172.1
847.4468,1454.5
847.5437,1221.5
848.0754,430.4
848.4943,679.1
848.5034,495.9
848.5573,8706.4
848.7925,591.3
849.1098,1184.2
849.153,530.1
849.3739,133.7
849.4288,625.3
849.5213,1205.4
849.5529,1154
849.5596,1140.9
849.6063,135.5
849.7137,454.9
849.7398,213.8
849.8322,320.6
850.0457,400.7
850.5345,1058.3
850.5739,2845.7
850.7658,1170
850.9483,404.4
851.0405,155.5
851.2737,666.8
851.6812,262.2
852.017,19.3
852.0992,348.5
852.234,663.8
852.4277,158.6
852.5782,193.4
852.875,485.2
853.0505,190.6
853.1938,461.2
853.4419,1524.3
853.5396,545.2
853.9991,857.2
854.3731,33
854.5266,17.1
854.8063,923.8
855.0422,737.5
855.4342,159.1
855.7612,261.3
856.0627,170
856.5834,6403.1
856.6323,21.6
856.8436,132
856.8761,551.2
857.0002,140.1
857.2765,501.7
857.4024,211.6
857.4571,330.8
857.5889,944.4
857.8398,168.6
857.897,488.5
858.4904,38.2
858.8641,116.9
858.988,484.4
859.4621,742.3
859.8926,283.4
860.3216,2629.2
860.3679,168.6
860.6108,686
860.9499,324.6
861.2424,223.6
861.4754,750.5
861.9856,378.3
862.029,436
862.0662,166.6
862.7601,900.4
862.9817,253.7
863.047,28.1
863.495,403.8
863.7267,1375.7
864.1162,17.7
864.2555,18.1
864.3736,134.5
864.8576,117.1
865.0567,659.7
865.4946,310
865.6542,682.7
865.9523,109.2
866.1246,156.4
866.7946,220.6
867.5882,351.6
868.3842,183.4
868.5252,19.7
868.9984,146
869.3685,299.7
869.5335,598.7
869.567,359.4
869.6289,659
869.6649,2794.7
869.6884,1185.9
869.7008,961.4
869.745,1636.4
869.7773,1791.7
869.8118,3040.8
869.8419,3579.1
869.8799,4047.6
869.8963,3498.7
869.9393,2556.9
869.9869,2560.5
870.0008,2867.8
870.0546,2345.5
870.0945,1653.5
870.119,792.5
870.169,872.1
870.8426,164.4
870.9618,172.5
871.1894,435.3
871.5063,1075.3
872.176,624.8
872.5442,646.9
872.694,309.2
873.0305,176.2
873.2338,238.7
874.4275,98.6
874.481,62.6
874.7082,663.1
874.8442,1093.8
874.8986,345.8
875.1301,24.8
876.0915,180.6
876.1721,859.4
876.2028,408.4
876.5527,248.5
876.74,665
876.7559,617.2
876.9843,356.4
877.4155,28.8
877.5932,189.9
877.7144,192.1
877.8752,223.3
877.9895,267.5
878.3513,143.2
878.3849,292.4
878.534,201.3
878.9033,223.6
879.2393,659.9
880.7229,208.5
880.9044,364.8
881.0487,423.9
881.1353,21
881.2254,612.4
881.7686,21.1
881.8267,741.6
881.8935,1361.9
882.0427,980.2
882.6199,780.3
882.8195,243.7
883.0662,856.8
883.0864,130.4
883.1454,354.7
883.2792,1599.2
883.4405,565
883.456,570.7
883.7899,506.4
883.8457,675.4
884.124,363.8
884.2518,161
884.3108,337
884.4293,554
884.4887,159.8
885.28,308.3
885.9375,604.9
886.187,358.9
886.4218,679.7
886.6184,1126.6
886.8348,1017.7
887.7707,192.3
888.1129,952.7
888.3439,181.4
888.9412,622.2
889.1727,141.2
889.5816,20.5
889.5879,20.4
889.7682,161.3
889.9155,23.2
890.1076,249.9
891.0272,734.6
891.1037,180.6
891.4858,283.6
891.5992,451
891.9784,23.3
892.422,938.8
892.9285,376.4
893.2376,153.6
893.3014,430
893.4039,291.1
893.6084,18.9
894.7512,1314.7
895.5266,22
896.0164,582.4
896.2489,170.9
896.6993,275.7
897.2175,313.9
897.3243,204.8
897.3745,426.5
897.9902,350.3
898.0632,746
898.1156,175.1
898.3002,48.7
898.4368,599.9
898.4671,567
898.6287,163.2
899.4299,754.3
900.1674,708.7
900.4459,191.7
900.6411,301.2
900.6945,374.8
901.2553,650.8
901.4021,581.3
901.5743,79.5
901.6402,176
902.0548,359.9
902.3737,216.8
902.8082,261
903.2873,323.5
903.682,427.1
903.7124,20.7
903.8011,141.4
903.8563,164.7
903.9527,320.7
904.1801,627.9
904.2911,312.4
904.373,579.3
904.5433,183.9
904.5788,24.1
904.6265,230.9
904.8624,141.9
905.0899,997.6
905.4474,138
905.5815,646.7
905.6133,153.3
905.9221,144.1
906.0826,179.7
906.1584,212.7
906.2823,145.2
906.7947,2383.2
907.6788,20.6
907.8509,205.7
907.9877,632.7
908.0243,108.7
908.274,21.3
908.606,640.3
908.7677,169.6
909.5575,1206.5
909.6193,715.9
910.2027,191.6
910.581,23.1
910.9417,21.2
911.1708,169.2
911.5866,242.6
911.643,300.5
911.8061,178.8
912.2669,588.4
912.2818,473
912.3353,349.2
913.4765,1006.2
913.5863,185.4
913.6139,202.3
913.6585,382.9
913.8616,576.5
914.2574,183.8
914.3937,193.3
914.4635,308.2
915.3215,1332.1
915.3614,1186.5
915.692,2376.9
916.3022,233.3
916.3815,631.7
916.4433,19.8
916.5424,1752.4
917.1214,215.4
917.1635,160.4
917.4341,413.1
917.5297,229.6
917.5409,266.7
917.5512,225.6
917.609,22.3
917.732,111.7
917.9738,20.8
918.8208,375.7
919.0866,69.8
919.3524,851.7
919.8599,789.9
919.9307,35.1
920.3894,630.4
920.4661,870.6
920.9361,879.4
921.0519,139.8
921.0896,25.1
921.2513,1918.6
921.5953,495.6
921.9976,767.5
922.4115,212.9
922.8978,476.4
922.9163,571.3
923.1709,18.2
923.2501,557.1
923.3363,116.3
923.4911,890.8
923.9511,420.2
924.5894,245.4
925.2235,507.9
925.4796,237.6
925.5309,172.5
925.8249,312.1
926.1089,1314
926.7866,247.7
927.0913,272.9
927.3178,209.1
927.4269,1015.9
927.5985,19.1
927.6249,546.1
928.2212,1019.2
928.2873,290.8
928.4894,212.2
929.0196,478.7
929.969,20.8
930.0654,611.3
930.1614,537.2
930.7758,437
930.9251,692.5
930.9839,298.9
931.0209,580.7
931.745,142.3
931.8385,482.2
931.9397,152.9
932.1593,23.1
932.8163,296.9
933.1939,19.7
933.7955,688.9
934.2256,1432.7
934.736,1407.1
934.8015,1176.2
935.705,225.8
935.9435,234.6
936.0624,20.8
936.184,584.4
936.2491,147.2
936.3124,634.4
936.6566,1182.7
936.7169,949.2
936.8084,673.2
937.0111,159.1
937.1948,167.6
937.5054,530.1
937.6982,146.6
937.8773,19.6
938.3259,23.3
939.0312,316.3
939.4967,267.3
939.7621,1446.8
939.8021,142.2
939.9798,861.3
940.6099,235.8
941.0298,1056.9
941.4983,459.7
941.7298,242.3
941.8988,526
941.9141,604.5
942.2019,456.4
942.2347,228.3
942.2693,511
942.4447,440.2
942.5825,890.8
942.8441,126.6
943.3765,1023.1
943.6146,128.4
943.7077,227.6
943.8672,353.1
943.9235,828
944.0021,272.9
944.0231,18.8
944.0992,2138.8
944.3653,157.8
944.4714,1301.1
944.6822,180
944.8548,742.7
945.4589,958
945.4924,268.6
945.6275,1051.5
945.8382,207.8
945.9113,282.7
945.9725,286.6
946.1919,158.2
947.7936,316.7
947.8586,332.2
947.9393,2376.9
948.0841,1510.7
948.3232,722.4
948.5063,496.8
949.0279,443.9
950.0872,235.4
950.3659,379.9
950.5828,1578.8
950.9302,577
951.3832,547.4
951.4326,22
952.0201,746.9
952.6526,124.9
952.7051,972.4
952.7363,1000.3
953.2848,409
954.2896,110.5
954.3385,160.7
954.4248,190.9
954.4558,610.9
954.7846,1247.2
955.0686,615.9
955.1145,445.9
955.3275,718.4
955.6098,294.1
955.7502,237.2
955.9448,957
956.4546,20
956.5188,21.1
956.5767,898.4
956.802,252.1
956.8222,174.9
956.8787,391.9
957.173,722.8
957.364,34
957.7892,18.6
958.1303,1108.2
958.2681,339.8
958.5822,1592
958.7786,888
958.8145,715.5
958.8479,1194.6
959.3087,311.5
959.4762,251.9
959.6013,21.1
960.2561,697.8
960.3058,656.6
960.6562,21.6
960.9201,1210.3
961.244,319.9
961.3539,890.1
961.5918,384.5
961.6954,463.4
961.7413,609.8
961.9214,227.9
962.1156,145.2
962.165,684.3
962.2143,208.1
962.6351,27.1
962.6443,27
962.8726,1062.7
963.0767,19.5
963.3356,403.3
964.1407,165.9
964.3762,466.5
964.5349,839.8
964.9042,475.6
965.3308,600.5
965.3583,183.9
965.3977,277.5
965.4192,360.2
965.4658,1501.2
965.4966,316.8
965.661,649.9
966.2748,304.9
966.6746,655.6
966.7517,326.1
967.3454,549.7
967.5416,2017.5
967.6291,1174.3
968.5277,314.3
968.6163,791.6
968.7107,146
968.9044,800.2
968.9898,626.2
969.0968,166
969.4691,789.7
970.1473,600.5
970.1942,189.3
970.4751,175
970.6853,19.5
970.8534,2744.1
970.9301,341
971.5092,213.4
972.2609,325.8
972.4664,996.2
972.7391,1634.3
972.7997,579.5
973.0256,805.1
974.1534,714.9
974.2656,21
974.7767,396.1
974.8248,670
975.3454,158.4
975.4794,1319.1
975.5433,675.7
975.569,23.2
975.7014,503.5
975.7725,17.9
976.1473,180
976.3895,1022.5
976.4736,561.5
976.9371,875.8
977.2022,379.2
977.4998,319.9
977.5854,214.3
978.5929,715.9
978.6408,364.1
978.6892,188.3
978.8404,520.4
979.1982,872.4
979.3318,1533.9
979.4941,1198.9
979.6842,754.7
980.0529,694.2
980.4851,513.3
980.769,163.8
980.9811,135.8
981.4421,588.8
981.9461,1357
982.5624,310.2
982.7685,237.9
982.9005,116.4
983.9023,480
984.0231,163.5
984.3735,246.7
985.3751,19.3
985.5582,497.3
985.7387,178.4
985.8861,187.4
985.9478,669
986.1358,1128.9
986.8567,633.6
987.0958,878.9
987.1506,775.2
987.4359,18.6
987.5133,463.4
987.5476,653.6
988.3787,118.9
988.5109,2442.3
989.062,186.1
989.1507,295
989.239,476
989.4154,354.3
989.5327,459.1
989.6085,187.5
989.9411,198.2
990.3294,801.5
990.3993,768.6
990.4835,1392.7
990.8214,1118
991.0373,716
991.8091,38.8
992.1505,1069.1
992.2173,834.9
992.5558,40.8
992.592,378.2
992.746,259.1
993.2688,926.4
993.3878,152.3
993.4493,156.4
993.4989,912.8
993.775,424.3
994.0616,1564.4
994.1642,20
994.9358,337.9
996.8259,813.9
997.9373,291.8
997.9733,253
998.3907,376.3
998.9857,859.5
999.2199,1396.2
999.5953,674.5
999.6585,167.9
999.7062,17.1
999.9266,636.3
