SPECTRUM - MS,
363.RAW,
FTMS + p ESI Full ms [50.00-1000.00],
Scan #: 1-40,
RT: 0.01-1.96,
AV: 40,
m/z,Intensity

50.0057,450.3
50.0081,18.8
50.0128,128.9
50.0277,84.6
50.0493,130
50.0573,123.5
50.0584,135.7
50.0701,19.4
50.1015,95.4
50.1036,136.3
50.1055,504.6
50.1133,524.8
50.121,317.5
50.1374,89.2
50.1404,155.2
50.1415,15.8
50.1456,247.4
50.1546,165.7
50.1671,17.9
50.1921,18.2
50.1949,436.3
50.207,152.1
50.2093,159.9
50.2122,94.6
50.2251,101
50.2258,133.7
50.2395,102.6
50.2617,420.3
50.2866,119.1
50.2992,636.5
50.3292,92.2
50.3387,109.8
50.3564,79.4
50.3828,427.9
50.4023,141.9
50.4136,133
50.4306,145
50.4488,17.8
50.4492,79
50.451,100.8
50.4539,708.2
50.4661,175.5
50.4805,387.1
50.5196,400.7
50.5248,333.5
50.5298,294.7
50.5398,602.2
50.5524,109.5
50.5664,156.8
50.5675,536
50.5753,684.3
50.5809,802.3
50.592,96.4
50.5981,391.9
50.6105,107.7
50.6358,585.6
50.6545,203.8
50.7013,18
50.7104,239.9
50.7186,636.4
50.7223,131.6
50.723,379.4
50.7308,488.9
50.7469,659.4
50.7478,388.5
50.7556,772.2
50.7598,108.7
50.7841,85.2
50.7921,171.3
50.7984,95.9
50.8723,73.6
50.877,149.6
50.89,504.8
50.8999,580
50.9055,557.1
50.9131,20.4
50.9198,133.9
50.9254,17.4
50.9264,182.3
50.9307,113.4
50.9537,139.2
50.9542,137.6
50.9586,439.7
50.9935,90.3
50.9968,500.6
50.9978,239.8
51.0206,358.3
51.0222,148.6
51.0252,609.3
51.0295,160.8
51.0373,681.2
51.0577,17.7
51.0659,151.1
51.0859,195.3
51.1207,417
51.1213,711.1
51.1281,557.9
51.1284,135.1
51.147,83
51.1656,131.2
51.196,482.9
51.2076,414.8
51.2325,138
51.2388,570.9
51.2465,108.1
51.2529,157.7
51.2607,547.5
51.3192,78.5
51.3276,186.4
51.3307,160.5
51.3475,628.8
51.3522,465.6
51.3607,95.6
51.3977,615.6
51.4488,118
51.4527,18.3
51.4585,169.2
51.4627,150.9
51.4679,246.9
51.4702,125.7
51.4708,635.5
51.4739,326.5
51.5082,18.8
51.5149,137.5
51.5214,820.9
51.5367,787.2
51.5531,356.1
51.5661,568.2
51.5674,588.5
51.5744,867.6
51.5847,110.3
51.6127,112.6
51.6274,323.5
51.6325,134.3
51.6377,16.3
51.6637,380.8
51.6676,838.1
51.6795,135.1
51.6834,103.5
51.6857,217.7
51.6884,165.7
51.6908,139.1
51.7093,125.7
51.7291,813.8
51.7394,117.4
51.7565,93.9
51.794,131.3
51.7952,143.8
51.7958,693
51.7987,117.2
51.812,760.7
51.8254,135.5
51.8286,78.6
51.8474,15.2
51.849,107.6
51.861,119.6
51.8621,185.4
51.8629,627.2
51.8722,355.2
51.8817,111.8
51.8824,146.4
51.8892,17.4
51.8942,281.5
51.9026,84.1
51.9027,85
51.913,890
51.9142,17.8
51.9151,175.6
51.9503,77
52.0151,298
52.0328,91
52.0559,20.6
52.0574,94.9
52.0776,231.7
52.0832,213.7
52.0846,119.7
52.0878,135.7
52.1086,102
52.1154,139.4
52.1212,162.4
52.1247,749
52.1286,455.6
52.1388,184.5
52.1403,148.4
52.1576,277.3
52.1693,183.9
52.1698,110.6
52.1741,333.9
52.175,601.4
52.1816,110.4
52.2084,504.4
52.2113,15.6
52.2152,548.1
52.22,117.6
52.2674,15.6
52.27,116.8
52.3033,106.8
52.3116,17.4
52.3482,133.1
52.3502,107.8
52.3613,434.8
52.3627,112.8
52.3713,120.9
52.3725,103.9
52.3904,217.9
52.3924,618.5
52.398,16.7
52.4312,592.2
52.4407,138.1
52.4659,189.2
52.4716,123.2
52.4738,562.6
52.4943,94.3
52.5002,17.8
52.5058,75.7
52.5356,174.6
52.5381,137.3
52.5563,18.4
52.5574,88.1
52.5637,75.2
52.5664,119.6
52.5908,15.7
52.602,690.6
52.6076,116.5
52.609,141.9
52.6462,300.7
52.6487,577.2
52.6492,714.9
52.6544,670.4
52.6578,132.9
52.6948,75.2
52.7018,361
52.7091,165
52.7217,121.4
52.7224,149.8
52.7292,799
52.7307,140.4
52.7359,124.7
52.7411,133
52.7534,537.1
52.7556,80.6
52.7567,130.1
52.7628,89.9
52.7716,121.2
52.7805,161
52.7814,825.2
52.8014,390.6
52.8218,317.5
52.8225,1415
52.823,483.9
52.8237,388.6
52.8238,314.9
52.8245,1438.5
52.8249,740.8
52.8254,357.3
52.8258,613.4
52.8263,676.5
52.8268,1910.2
52.8276,3347.6
52.8279,1626.8
52.8284,2490.2
52.8652,95.2
52.8686,601.3
52.8905,126.1
52.8956,289.4
52.9092,142
52.9176,690.4
52.9318,131.1
52.9425,131.8
52.9446,634.5
52.9614,115.1
52.9645,194.8
52.9843,93.8
52.9853,117
52.9946,129.6
53.0003,514.9
53.003,169.7
53.0232,130.1
53.0249,574.7
53.0502,16.6
53.0699,324.8
53.1608,564.3
53.1625,783.4
53.1817,672.9
53.1904,298.7
53.1907,803.5
53.2053,114.5
53.2346,736.2
53.2389,177.1
53.2438,184.8
53.2488,365
53.254,133.3
53.2575,545.1
53.26,276.9
53.2697,167.2
53.2765,88.7
53.2874,119.5
53.2927,130.7
53.2929,133.5
53.2955,403.9
53.2978,95.6
53.3114,125.2
53.3396,562.4
53.3413,372.5
53.3423,199.3
53.3449,84.8
53.3586,645.9
53.381,455.5
53.386,87.5
53.3995,281.4
53.4117,247.5
53.4265,236.7
53.4518,132.1
53.454,138.8
53.4584,22.3
53.4672,137.1
53.4838,684.8
53.4847,369.5
53.4851,370.8
53.4976,206.7
53.5287,138.9
53.5635,93.3
53.574,133.2
53.5766,103.6
53.5788,674.2
53.5842,694.7
53.5875,19.9
53.6064,438.9
53.6148,851
53.6199,112.6
53.6216,103.6
53.6235,633
53.626,363.2
53.6377,304.1
53.6429,19.2
53.6477,16.6
53.6576,172.2
53.7001,127.3
53.702,629.2
53.7038,126.7
53.717,112.8
53.7292,99.3
53.7428,152.2
53.7459,721.3
53.7792,135.4
53.7936,612.9
53.8291,709.3
53.8305,16.1
53.8335,135.4
53.8538,350.5
53.8901,485.2
53.8952,487.8
53.9105,606.8
53.9126,192.4
53.9209,123.4
53.9574,81.2
53.9657,715.6
53.9746,597.1
53.9826,115.7
53.9909,625
53.9922,86.7
54.008,618.4
54.0114,248.5
54.0216,674.1
54.0263,530.7
54.0337,158.9
54.0448,129.8
54.0497,87
54.0559,149.4
54.0652,781.5
54.0726,790.8
54.0737,104.6
54.0822,115.7
54.0948,249.2
54.1075,549.6
54.1079,635.7
54.1192,211.9
54.1224,167.6
54.1398,543.3
54.1682,165.6
54.1912,103.4
54.1917,114.6
54.1958,84.2
54.2118,497.4
54.23,119.5
54.2322,91.3
54.2351,102.4
54.2492,219.7
54.2664,176.1
54.2702,15.9
54.2794,773.2
54.3293,82.5
54.3365,129.7
54.3378,1084
54.3496,565.9
54.3518,208.7
54.3555,204.1
54.3618,297.8
54.3759,594.6
54.3771,638.6
54.3772,646.4
54.3814,18.1
54.3942,98.3
54.4114,16.1
54.4154,360.5
54.4162,195.2
54.4179,268.6
54.4207,87.7
54.4231,646.3
54.4292,18.7
54.4499,189.1
54.4521,591.7
54.4588,219.6
54.4893,102.5
54.522,84.7
54.5232,224.4
54.5239,772.6
54.5332,629.6
54.5344,92.3
54.5507,472.6
54.558,16.1
54.5604,462.2
54.5637,331.9
54.5834,200.1
54.5963,134.4
54.6006,639.6
54.6099,473.6
54.6327,158.8
54.6411,109.8
54.6455,713.3
54.6562,686.9
54.6681,195.4
54.6863,125.3
54.6869,17.1
54.6923,16.7
54.6954,86.5
54.6991,17.4
54.7128,256.8
54.7148,176.3
54.7265,81.1
54.7716,17.6
54.7856,718.5
54.7932,310.9
54.8047,447.2
54.8092,181.3
54.8109,113.5
54.8118,686.6
54.8151,116.8
54.8284,95.8
54.8299,694.2
54.8333,18
54.8346,95.5
54.8518,163.3
54.8575,18.7
54.8579,143.4
54.9005,407
54.9013,114.6
54.9021,151.5
54.9182,136.5
54.9256,75.5
54.9264,17.1
54.9335,177.1
54.9442,172.1
54.9491,556.5
54.9584,174.3
54.9629,97.2
54.9915,91.6
54.9949,150.3
54.9961,781.9
54.9993,626.2
55.001,115.4
55.0055,105.7
55.0063,319
55.0315,247.5
55.0431,481.1
55.048,726.4
55.0545,85.6
55.0599,218.1
55.0617,129.7
55.0654,656.7
55.09,365.7
55.0949,495.9
55.0988,17.1
55.1552,630.2
55.1682,89.2
55.1704,604
55.1838,474.6
55.1902,74.5
55.2164,293.5
55.218,160.8
55.2207,368
55.2263,126
55.2661,100
55.2813,152.4
55.2963,142.4
55.3067,87
55.307,123
55.3128,16.6
55.3757,247
55.379,132.1
55.3801,96.4
55.3867,433.2
55.4225,187.4
55.4283,137.5
55.4417,101.9
55.4457,123.2
55.4674,242.9
55.4731,17.1
55.4783,500.2
55.4949,130.6
55.4984,111.5
55.5087,110.8
55.524,552.4
55.5526,181.6
55.5675,185.4
55.5884,151.1
55.5888,165
55.5905,88.3
55.6076,405.6
55.6114,436.7
55.6358,101.7
55.6384,116.6
55.6679,97.2
55.6812,232.7
55.7031,873.8
55.7075,328.2
55.7175,114.4
55.7323,135.5
55.7435,250.1
55.7462,156.5
55.7521,74.7
55.7572,336.4
55.7744,261.8
55.8223,285.1
55.8341,820.2
55.84,168
55.8513,751.2
55.8576,18.6
55.864,95.7
55.8764,290.5
55.9061,623.4
55.9179,17.8
55.9188,16.9
55.9204,108.9
55.9403,16.7
55.9452,652.2
55.9469,161.9
55.9765,744.1
55.9825,188.8
55.9846,177.2
56.0649,374.8
56.0713,175.4
56.0921,142.5
56.1026,160.5
56.1044,79.9
56.1342,525
56.1346,160.4
56.1354,131.4
56.1454,453.2
56.1459,330.6
56.1528,705.2
56.1612,85
56.162,16
56.165,286.8
56.1662,278.6
56.2225,225.2
56.2255,106.3
56.2392,83.2
56.2438,302.8
56.2484,359.5
56.2505,744
56.2802,88.5
56.2867,596.5
56.2906,728.2
56.3078,180.2
56.3337,19.1
56.3409,178.1
56.3434,250.8
56.3637,568.3
56.4057,170
56.4076,265.8
56.4211,80.8
56.4519,109.1
56.4524,17.9
56.4581,17.6
56.4733,693.6
56.4863,177.9
56.4886,77.9
56.5122,102.8
56.5192,712.8
56.5324,265.2
56.5461,821.2
56.555,281.6
56.5559,558.9
56.5755,455
56.5764,15.4
56.5982,122.1
56.602,261.5
56.6024,733.9
56.6232,147.1
56.6318,695.4
56.6337,147.5
56.6367,118.3
56.6526,350.5
56.6612,106.7
56.6636,336.7
56.684,15.4
56.7259,107.5
56.745,180.1
56.7479,215.5
56.7573,129.7
56.7674,85.2
56.7832,109.4
56.8139,248.9
56.8203,82.9
56.8216,502
56.826,244.2
56.8603,124.1
56.8662,169.1
56.8895,257.4
56.8897,346
56.8962,155.2
56.9167,102.6
56.9184,135.6
56.9214,98.7
56.9254,78.2
56.9425,344.8
56.9527,242.3
56.9545,711.5
56.9632,119.7
56.9721,398.2
56.9789,233.9
56.98,110.4
56.9847,141.7
57.0089,357.7
57.0122,303.3
57.0313,21
57.0364,725.3
57.0391,159.6
57.0642,168
57.0646,630
57.0703,119.9
57.0747,525.8
57.095,152.6
57.1151,156.3
57.1557,98.1
57.2059,170.8
57.2076,86.7
57.2178,18.9
57.2223,146.3
57.2348,129.7
57.2411,677.3
57.2555,638.1
57.278,123.7
57.2943,625.7
57.2976,116.9
57.3334,157.7
57.3377,761.9
57.3419,716.3
57.3526,15.9
57.3632,86.4
57.3674,323.2
57.3742,133.4
57.3846,391.2
57.3927,107.8
57.411,728
57.4114,321.4
57.4128,20.7
57.4188,553.9
57.4285,385.6
57.4387,150.4
57.4443,791.4
57.5017,15.6
57.5031,128.8
57.5278,116.4
57.5396,17.8
57.5401,179
57.5556,125.3
57.569,150.7
57.574,211.1
57.5862,227.1
57.5981,104
57.6024,113.8
57.6424,17.9
57.6487,341.4
57.6499,113.3
57.6552,648.9
57.6637,93.5
57.6702,400.2
57.6706,177.2
57.6732,145.4
57.6785,87.3
57.7237,223.6
57.7286,105.3
57.7346,122
57.7372,447
57.7622,18.8
57.7795,99.2
57.8328,380.1
57.8342,150.5
57.8501,145
57.8519,134.3
57.8533,18.9
57.8542,716.7
57.8616,144.3
57.8659,382.5
57.8686,475
57.8828,326.2
57.9061,17
57.9153,739.4
57.9191,199.1
57.9229,654.9
57.9233,373.7
57.9297,137.7
57.9332,295.3
57.9414,108
57.9713,17.3
57.974,266.5
57.9836,672.4
57.9882,19.3
58.0059,693.2
58.019,562.8
58.0581,874.6
58.0608,134.2
58.076,438.2
58.0898,486.5
58.1076,137.9
58.1176,308.6
58.1204,644.1
58.1321,142.6
58.1471,17.8
58.1489,18.4
58.1719,597.4
58.181,677.5
58.1938,559.7
58.1969,178
58.2267,116.8
58.2278,80.6
58.2306,198
58.2384,118.2
58.2501,242.2
58.2591,83.5
58.2885,134.1
58.3061,333.9
58.3195,80.7
58.3335,74.5
58.3582,133
58.3691,79
58.3926,525.8
58.3975,92.1
58.4138,254
58.4171,160.5
58.434,160.4
58.4371,18.3
58.4539,19.3
58.484,142
58.4847,127.6
58.4875,84.3
58.5156,398.1
58.5548,344.9
58.5624,137.8
58.5864,527
58.5884,313.3
58.5979,471.4
58.6168,173.6
58.6463,112.1
58.6527,238.4
58.6533,19.5
58.6614,156.6
58.676,176.4
58.6784,16.7
58.681,255.9
58.6934,138.1
58.6981,18.3
58.7037,198.7
58.707,120.8
58.7106,111
58.7195,645.4
58.7242,321.9
58.7276,506.2
58.7491,436.3
58.7542,142
58.7631,116.8
58.7645,106.3
58.7675,159.9
58.7694,286
58.7702,614
58.7736,171.4
58.7752,495.6
58.7886,114.9
58.7892,156.3
58.7946,329.5
58.8007,91.7
58.8098,720.1
58.8247,791.5
58.8442,917.6
58.8528,296.3
58.8543,613.3
58.8569,166.4
58.8723,673.9
58.8844,278.6
58.8852,74.7
58.8966,377.7
58.9032,586.4
58.9098,141.1
58.9182,425.6
58.9361,281.3
58.9452,306.6
58.9475,661.4
58.9533,265
58.9671,218.1
59.0122,191.9
59.0129,602.3
59.0158,553.7
59.0203,919.3
59.0419,267.1
59.0465,17.6
59.0571,139.6
59.0671,81.9
59.103,91.2
59.1149,463.3
59.1288,92.6
59.1308,141.5
59.1339,502.2
59.1402,102.8
59.1422,145.6
59.1476,344.8
59.1709,192.5
59.1718,118.8
59.179,242.5
59.1948,117.3
59.2399,115.7
59.2541,826.1
59.2559,586.2
59.2592,17.4
59.2674,16.1
59.2843,111.7
59.2984,900.9
59.3428,413.2
59.3495,702.3
59.3508,103.9
59.3614,221.3
59.3637,21.7
59.3706,682.1
59.3732,172.8
59.3793,233.6
59.3945,83.2
59.4027,143.6
59.4285,553.6
59.4307,412.6
59.4482,77.5
59.4498,478.3
59.4517,596.3
59.475,15.9
59.4786,222.1
59.4937,76.5
59.503,134.4
59.5095,81.4
59.5158,194.8
59.5208,124
59.5515,203.6
59.5571,803.5
59.6097,237.7
59.6138,303.1
59.6336,497.5
59.651,241.5
59.6623,130.3
59.7004,92.2
59.7177,228.5
59.7385,748.9
59.7402,17.3
59.7551,286.6
59.757,82
59.7616,428.4
59.7648,124.2
59.7708,158.6
59.7753,163.8
59.7842,642.2
59.7874,842.8
59.8049,77
59.8186,214
59.8334,140.7
59.8371,171.8
59.8427,174.3
59.8622,306.2
59.883,106.5
59.8982,78.7
59.9227,458.7
59.9349,326.7
59.9409,168.8
59.9618,178.4
59.9662,181.2
59.9768,512.7
59.9868,156.6
60.0118,319.3
60.0122,112.9
60.0138,17.8
60.081,127.4
60.0816,140.1
60.0828,140.3
60.1361,161.1
60.1435,443
60.1462,524.8
60.1776,682.2
60.1786,514.3
60.201,227.2
60.2106,604.4
60.2252,268
60.2274,475
60.2279,129.1
60.2364,110.1
60.2421,88
60.2508,90.3
60.2544,432.2
60.2597,117.3
60.2644,136.7
60.2698,136.1
60.2832,544.1
60.2975,111.4
60.322,17.1
60.3273,466.7
60.3359,602.1
60.338,135.4
60.3409,169.4
60.3459,259.8
60.3478,138.8
60.3497,729.4
60.3548,336.3
60.3574,571.9
60.3652,135.9
60.3783,465.4
60.3788,490.6
60.4107,774.9
60.4261,333.5
60.4373,273.6
60.4407,550.5
60.4595,527.1
60.4928,332.1
60.5163,157.2
60.5201,729.6
60.5278,148.6
60.532,135.9
60.565,427.5
60.5813,138.7
60.6012,107.2
60.6018,417.6
60.6089,121.7
60.6115,417.8
60.6135,649
60.6778,268.5
60.6806,118
60.6901,150.8
60.6937,269.6
60.722,360.8
60.7362,103.6
60.749,708.4
60.7566,81.3
60.7594,977.6
60.7784,163.7
60.8035,899.4
60.8131,125.3
60.8137,122.9
60.8241,16.5
60.8248,239
60.8258,373.4
60.8286,172.5
60.8409,254
60.8459,162.9
60.8753,133.1
60.9043,139.4
60.9111,121.6
60.9196,19.9
60.9221,379.9
60.9247,84.8
60.9297,506.7
60.9628,471.1
60.9674,158.5
61.0001,679.1
61.0046,85.8
61.0141,187.1
61.0218,810.8
61.0237,18.9
61.0448,331.6
61.0696,16.6
61.0779,84.2
61.0838,18.6
61.0984,16.6
61.1084,16.5
61.1194,156.9
61.1279,238
61.1317,317.4
61.1539,157.2
61.1852,16.5
61.2136,796.1
61.2255,504.3
61.2411,292.9
61.2487,125.8
61.2502,299.4
61.2684,220
61.2714,945.2
61.2755,96.9
61.2871,157.8
61.289,252
61.3202,104.7
61.3216,486.4
61.338,180.3
61.3771,544
61.3806,110.3
61.3986,18.1
61.432,98.5
61.4699,116.1
61.4771,482.8
61.513,191.4
61.5173,240.1
61.5207,310.2
61.5576,188
61.569,143.7
61.5692,183
61.5693,154.4
61.5843,147.2
61.6335,448
61.6425,141.4
61.6893,17.7
61.7286,400.9
61.7337,642.2
61.7602,117.1
61.7688,525.3
61.7804,177.2
61.7867,122.8
61.8055,771.7
61.8203,310.7
61.8235,94.7
61.8369,326.1
61.838,423.3
61.8536,533.2
61.8683,175.1
61.8711,783.5
61.9114,82.7
61.9253,523.8
61.9272,430.8
61.9299,506.9
61.947,85.6
61.961,239.7
61.9663,127.7
61.9682,175.9
61.9738,97.7
61.9919,549.7
62.0017,498.8
62.0131,84.8
62.0143,804.6
62.023,183.4
62.0461,780.4
62.0531,18.8
62.0594,757.5
62.0597,79
62.073,146.5
62.0886,18.9
62.1024,466.5
62.1128,138
62.1257,327
62.1303,116.6
62.1335,756.9
62.1431,523.2
62.1449,107
62.2052,15.6
62.2597,756.2
62.2868,748.2
62.3156,90.1
62.3233,138.4
62.3307,414.2
62.3547,17.8
62.3721,132.4
62.3821,121.1
62.3849,139.1
62.3924,93.9
62.3974,210.6
62.4202,630.2
62.4291,76.6
62.4459,850.4
62.4569,365.9
62.4664,351.4
62.4675,166.9
62.4703,17
62.4812,535.6
62.4843,150.3
62.5023,443.9
62.5342,18.3
62.5425,197.2
62.5459,182.3
62.549,630.5
62.5515,110.5
62.5622,200.2
62.5863,192.9
62.5908,106.8
62.5992,95
62.6128,19.8
62.6241,184.9
62.6415,598
62.6489,106.4
62.7028,18.1
62.7066,145.9
62.7097,472.4
62.71,510.8
62.7167,79.7
62.7197,106.6
62.7205,515.1
62.7243,321
62.7309,18.9
62.7356,105.5
62.736,355.4
62.7402,400.3
62.7404,449.1
62.7407,322.7
62.7465,618.9
62.7557,20
62.7562,97.4
62.7586,203
62.7905,109.6
62.7937,581.7
62.7949,149.9
62.8239,168.7
62.8339,130
62.859,731.4
62.8595,100.3
62.8828,250.6
62.9003,115.6
62.9051,116.8
62.9061,225.2
62.9312,281.4
62.9408,115.7
62.9584,181.5
62.9784,181
62.9862,487.9
63.01,338.1
63.0382,94.7
63.0443,78.9
63.057,378.1
63.0966,711.2
63.111,19.4
63.1219,254.2
63.132,246.2
63.1408,478.7
63.1417,16.8
63.1689,553.3
63.1709,129.2
63.1722,354.8
63.1804,132.5
63.1904,111
63.1912,22.4
63.2305,748.5
63.2319,267.7
63.2447,184.4
63.2452,172.3
63.2525,813.8
63.2535,123.9
63.2552,771.9
63.2592,794.1
63.2682,615.8
63.2793,263.5
63.2863,143.7
63.2934,111.5
63.2941,125.8
63.3463,456.8
63.349,175.6
63.3735,887.9
63.3786,701.4
63.4255,796.5
63.4284,806
63.4486,291.3
63.4625,289.9
63.4744,81.4
63.493,490.7
63.4992,148.1
63.5085,16.5
63.5118,466.5
63.5231,118.2
63.5251,228.8
63.5335,126.6
63.5465,95.6
63.559,797.5
63.5609,134.6
63.5716,81.6
63.5906,443.7
63.5986,557
63.602,164.1
63.6115,468.8
63.6646,242.3
63.6681,132
63.6688,191.1
63.6735,227.9
63.6949,577.1
63.6994,133.6
63.7044,533.6
63.7055,96.9
63.7261,380.1
63.7546,231.2
63.7684,100.4
63.7718,77.7
63.7767,174.3
63.7791,19.6
63.7891,103.6
63.8229,284.4
63.8238,342.7
63.8246,82
63.8338,674.4
63.8542,188.2
63.8665,16.8
63.8884,630.1
63.9069,663.2
63.9569,201.1
63.967,388.7
63.9812,152.4
63.9918,81.1
63.9947,16.8
64.0043,592.6
64.0121,819.4
64.0222,142.4
64.0281,594.2
64.0607,121.5
64.0828,81.1
64.0842,17.4
64.0914,107.9
64.0966,91.7
64.1163,126.6
64.1186,641.8
64.1516,131.1
64.1556,187.5
64.2143,273.2
64.223,17.3
64.2415,262.8
64.2464,96.6
64.2551,505.2
64.2791,19.3
64.2801,112.8
64.292,18
64.3122,131.6
64.3161,185.2
64.3449,146.5
64.3539,288.7
64.3687,753.9
64.3827,614.7
64.3936,100.4
64.3964,125.9
64.4056,414.4
64.4144,407.3
64.4182,113.9
64.4255,230.8
64.4383,116.3
64.4495,125
64.4559,19
64.4588,17.8
64.4741,20.8
64.4749,275
64.4794,382.4
64.482,22.3
64.5066,616.3
64.5137,133.2
64.516,248.7
64.5212,114.9
64.5257,152.1
64.5412,597.6
64.5446,126.1
64.5488,507
64.5788,786.7
64.6186,268.3
64.6294,268.6
64.6504,247.2
64.662,915.2
64.6715,147.5
64.7005,316.4
64.7291,552.1
64.7298,334.2
64.7431,553.7
64.7746,143.2
64.7949,183.3
64.7984,96.3
64.8046,192.2
64.8091,711.8
64.867,93.7
64.8697,17.1
64.882,388.1
64.8834,538.4
64.896,99.2
64.8989,554.4
64.9021,341.9
64.905,470.3
64.9077,167.3
64.9267,192.3
64.9285,589.9
64.9297,429.7
64.9514,353.8
64.9594,108.6
64.9646,189.5
64.97,187.9
64.9745,103.8
64.9754,18
64.979,130
64.9803,713.9
64.986,109.4
64.9865,327.7
65.0117,19.8
65.0309,479.7
65.0417,125.4
65.0479,783
65.0494,159.1
65.0513,133.8
65.0544,370.9
65.0775,458.8
65.0837,278.5
65.0861,271.7
65.0881,17
65.0957,121.7
65.1137,240.2
65.1249,743.2
65.131,250.5
65.1397,714.1
65.1423,159
65.1445,145.2
65.1837,695.3
65.1906,86.7
65.1924,315.6
65.1963,114.1
65.2044,1122.8
65.2102,632.3
65.2274,116.5
65.2332,524.7
65.2722,153.1
65.2932,269.8
65.3043,650.4
65.311,126.1
65.3129,193.9
65.3437,284.5
65.3447,147.1
65.3461,134.4
65.386,177.6
65.392,245.3
65.397,245.9
65.3982,127.1
65.407,781.8
65.4229,436.8
65.4669,670.4
65.4693,74.2
65.4702,500.2
65.4825,810
65.4889,195.6
65.4935,583.3
65.502,797.8
65.5246,24.5
65.5275,110.5
65.547,154.7
65.5585,90.2
65.5727,246.1
65.5974,500.6
65.5984,126.5
65.6001,1125.7
65.609,223
65.6191,434.1
65.6329,159.5
65.6345,739.8
65.64,791.6
65.6641,624.5
65.676,135.9
65.6872,145
65.6881,495.2
65.7143,125.7
65.7214,736.3
65.7304,623.4
65.742,144.2
65.7446,313.3
65.7575,349.7
65.764,207.3
65.7764,616.9
65.7781,113
65.7872,321.4
65.7893,90.8
65.8044,124.8
65.8156,361.1
65.8185,660.2
65.8518,294.7
65.853,435.1
65.8566,399.1
65.8654,441.2
65.8887,426.8
65.9261,546.2
65.9676,729.4
65.994,148.3
65.9998,642.6
66.0225,107.2
66.0347,148.9
66.0496,242.9
66.0554,722.1
66.0588,115.7
66.0623,92.5
66.1113,144.9
66.1129,81.6
66.1363,82.5
66.1479,16.8
66.1524,16.7
66.1575,684
66.1619,19.4
66.188,144.8
66.1917,169.5
66.2065,1049.6
66.2485,131
66.254,93.2
66.2569,646.1
66.2623,630.2
66.2642,285.7
66.2746,96.2
66.2911,691.2
66.2949,85.8
66.3142,265.6
66.3421,16.6
66.3436,326.6
66.3443,674.8
66.352,729.4
66.3598,147.1
66.3736,497.8
66.3839,140.7
66.3867,1513.4
66.3896,130.2
66.3974,104.6
66.3985,155
66.404,86.9
66.4192,219.4
66.4204,492.3
66.4288,109.4
66.4455,17.8
66.4621,160.3
66.4627,167.7
66.4868,175.9
66.4889,120.9
66.4914,382.6
66.5017,661.3
66.5228,650.1
66.5482,338.3
66.5998,81
66.6068,107.1
66.6348,440.1
66.6821,16.4
66.6869,487.4
66.6933,680.1
66.7088,663.4
66.7097,239.2
66.7177,368.9
66.7193,14.8
66.7357,832
66.7391,234.4
66.7477,174.3
66.7553,592.6
66.7571,385.7
66.7683,275.1
66.7973,632.7
66.8239,279.9
66.847,122.1
66.8523,162.1
66.8599,577.7
66.8615,148.6
66.8871,152.8
66.8967,247.1
66.9016,102.3
66.9034,130.9
66.9072,82.4
66.9085,205.9
66.9278,21
66.9319,462.4
66.9425,902.1
66.955,228.2
66.9617,387.4
66.9633,969.8
66.9731,161.7
66.9753,78.9
66.9776,826.4
66.9835,170.9
66.9881,511.6
67.0015,130.3
67.0113,869.6
67.0132,143.1
67.0211,107.2
67.0251,94
67.0418,177.1
67.0523,99.2
67.0815,90
67.1087,188.1
67.1143,295.5
67.1168,831.1
67.1178,16.2
67.1232,173
67.1257,306.4
67.1302,345
67.1408,928.9
67.1584,17
67.169,15.4
67.1863,180.7
67.19,139
67.2071,120.9
67.2098,110.5
67.2199,371.6
67.239,805.4
67.243,346
67.2502,513
67.28,693.4
67.3518,175.1
67.3583,332.3
67.3598,316
67.3849,159.6
67.3976,691.7
67.4231,707.6
67.437,373.2
67.4414,551.2
67.4499,577
67.478,17.1
67.4941,189.8
67.4964,193.9
67.5005,335.6
67.5108,188.9
67.5153,216.3
67.5341,600.7
67.5564,284
67.5815,249.2
67.5886,698.9
67.6,103.1
67.6345,282.8
67.6511,237.6
67.6521,16.7
67.6849,740
67.6892,575.7
67.7081,129.3
67.7241,172.1
67.7512,630.4
67.7557,333.9
67.7728,478
67.7745,393.8
67.7779,105.1
67.7852,798.9
67.7973,92.8
67.8091,111.6
67.8155,351.7
67.825,527.5
67.8379,343
67.886,111
67.8964,256.9
67.8966,280.3
67.901,434.5
67.9033,530
67.9152,120.8
67.9228,804.1
67.9374,125.9
67.9558,81.5
67.9752,234.5
67.9828,221.7
67.9835,129.1
67.9959,138.3
67.9965,130
68.0667,201.5
68.0731,119.3
68.0874,108
68.1047,289.7
68.1069,150.6
68.131,256.9
68.1426,104.4
68.1485,454.8
68.1562,661
68.1773,160.5
68.1924,197.4
68.2174,140
68.2184,196.5
68.2192,161.6
68.2433,102.7
68.2437,522.8
68.2465,112.6
68.2559,270
68.2613,117.1
68.2699,363.2
68.2797,268.2
68.2867,21
68.2872,644.2
68.3017,171.8
68.3121,187.4
68.3195,143.8
68.3435,859.5
68.4183,432.3
68.4225,445.4
68.4271,488.8
68.4392,138.2
68.4433,196.7
68.457,323.2
68.4574,467.5
68.4914,229.6
68.5117,226
68.5644,243.3
68.5752,17.1
68.5867,19.2
68.6221,779.8
68.6353,119.8
68.6384,493.5
68.6519,155.9
68.6583,386.9
68.6611,107.9
68.67,455.3
68.6852,80.4
68.7229,159.6
68.7529,778.1
68.7657,502.7
68.7752,298.1
68.7825,633.4
68.7965,579.8
68.8052,80.1
68.8151,342.5
68.8295,251.5
68.849,764.2
68.8535,264.8
68.8867,685.6
68.8893,465.1
68.9029,124.8
68.9333,821.8
68.9659,147.6
68.9662,153.8
68.9781,218.3
68.9917,152.5
69,118.9
69.0154,17.7
69.0171,676.2
69.0369,662.5
69.0402,338.4
69.0452,462.6
69.0769,17.4
69.0813,16.7
69.0887,126.6
69.0966,93.4
69.1077,91.6
69.1309,146.9
69.132,411.8
69.1409,864.9
69.1507,419.6
69.1737,262.3
69.2302,846.4
69.2522,100.6
69.2626,100.2
69.265,682.2
69.2729,396.2
69.327,152.2
69.3424,129
69.3505,492.7
69.3591,734.5
69.3662,159.6
69.3731,88.7
69.3743,561.8
69.3793,404.3
69.3952,16.8
69.4261,560.7
69.4322,295.1
69.4457,131.9
69.4582,604.7
69.4667,237.8
69.4712,120.5
69.5057,269.7
69.5354,197.5
69.5444,377.9
69.5575,149.5
69.5587,181
69.586,340.3
69.5927,83.9
69.6036,130.6
69.6078,171.4
69.6101,271.1
69.623,16.3
69.6249,144.8
69.6448,113.1
69.6475,500.4
69.651,557.1
69.6553,246.5
69.6617,219.7
69.6759,18.8
69.6763,131.8
69.764,16.4
69.7746,279.4
69.7766,413.3
69.7945,796
69.8409,154.3
69.8434,400.8
69.8551,152.9
69.8847,160.6
69.9037,567.8
69.9117,232.7
69.9364,475.5
69.9453,19.5
69.9502,747.9
69.9751,289.4
70.0204,103.1
70.0239,110.8
70.0246,118
70.0436,171.6
70.048,656.2
70.0518,670.5
70.0649,140.1
70.0852,17.4
70.1055,135.5
70.1075,157.4
70.1114,84.4
70.1351,96.8
70.149,218.8
70.1834,202.4
70.1985,102.7
70.2059,18.4
70.2303,831.8
70.2424,350.9
70.2526,202.7
70.2798,194.8
70.336,230.7
70.3888,382.1
70.4299,140.6
70.4598,727.1
70.4753,528.2
70.4785,155.3
70.4981,243.8
70.5046,94
70.5089,109.5
70.5265,318.6
70.5403,123.9
70.5613,95.4
70.5651,816
70.5829,17.7
70.5842,558.8
70.5854,157.7
70.5969,777.6
70.6154,306.9
70.6426,597.3
70.6504,631.6
70.6551,815.1
70.6629,20.4
70.6835,148.7
70.6968,207.5
70.7004,17.2
70.7057,230.1
70.7121,804
70.7189,393.4
70.7612,120.6
70.771,979.6
70.7865,17
70.8023,99.6
70.8129,121
70.8377,99
70.8534,399.4
70.8763,198
70.8892,605.1
70.8985,132.7
70.9004,736.2
70.905,90.3
70.9099,16.2
70.9142,134.8
70.9414,18.1
70.9515,77.9
70.9891,396.9
70.9914,889
71.0134,204
71.021,164
71.028,15.8
71.0429,560.3
71.0632,189.5
71.0772,128.4
71.088,543.1
71.1318,535.9
71.1353,212.4
71.1421,688.7
71.1607,78
71.1759,16.4
71.2192,109.8
71.2234,644.2
71.237,138.9
71.2432,124
71.2586,149.3
71.2782,227.3
71.3055,155.7
71.3166,111.5
71.3279,135.2
71.363,118.6
71.3676,136.1
71.4028,200.3
71.4232,159.5
71.4403,170.3
71.456,16.1
71.4701,149.4
71.4886,603.9
71.4968,100.5
71.5018,639.4
71.5042,101.5
71.5521,297.6
71.5542,152
71.5907,127
71.5921,94.8
71.6116,83.6
71.6216,18.3
71.6269,189.1
71.643,209.7
71.6588,304
71.6862,183.9
71.6929,110.1
71.7188,80.6
71.7242,261.8
71.7352,335
71.7493,875.3
71.7538,538.1
71.7714,235.6
71.7872,116.8
71.8174,118.5
71.8289,100
71.8315,601
71.835,93.1
71.844,182.4
71.8677,254.2
71.8748,116
71.8868,124.5
71.8878,124.2
71.891,110
71.8917,260.7
71.9019,335.1
71.933,120.7
71.945,754.5
71.947,411.5
71.95,84.1
71.9603,325.2
71.9614,111.8
71.9823,16.3
71.9915,288.9
71.9985,18.2
72.0071,353.6
72.0212,146.2
72.0428,95.3
72.0519,144
72.0549,501.7
72.0601,793.9
72.0734,156.3
72.0804,705.3
72.0879,139.3
72.0887,643.7
72.1077,236.8
72.11,279
72.1679,123
72.1711,140.5
72.18,247.5
72.1924,130.1
72.197,143.6
72.2049,213
72.2217,765
72.2307,1311.3
72.232,236.7
72.2329,236.5
72.2336,1103.9
72.2341,665.9
72.2351,346.7
72.2364,1631.9
72.2368,1943.6
72.2377,1750.9
72.2386,938.6
72.2394,319.6
72.2403,912.3
72.2411,2971.4
72.2417,1883.9
72.2423,1602.5
72.2438,2027.6
72.2452,3284.2
72.2462,3140.9
72.2466,2889.9
72.2478,2255.4
72.2489,2390.5
72.2501,2907.9
72.2511,4164.9
72.2516,2400.3
72.2523,3759.8
72.253,1870.6
72.2541,2631.7
72.2547,2694.7
72.2557,1626.5
72.2566,2067.9
72.2575,1111.3
72.2588,1661.7
72.2593,1335.6
72.2607,467.4
72.2616,535
72.262,817.9
72.2657,98.1
72.2853,368.1
72.2946,806.3
72.3075,190.3
72.3108,319.6
72.3223,96.8
72.355,473.3
72.3732,145
72.3905,83.3
72.409,20
72.4166,399.7
72.4206,338.1
72.4227,1115.5
72.4402,194.5
72.4492,121.4
72.4623,138.7
72.4639,91.7
72.4657,93.1
72.5247,430
72.5579,129.7
72.5653,401.3
72.5745,169.3
72.5811,100.4
72.601,155.2
72.608,284.3
72.6213,98.4
72.6557,347.8
72.6637,105.6
72.6811,94.5
72.6917,378
72.7014,330.5
72.715,217.4
72.723,679.8
72.727,17.2
72.7321,429.3
72.7346,384.1
72.7361,24.4
72.7523,155.7
72.7657,488.3
72.7819,124.7
72.7873,154.2
72.8052,107.4
72.8128,135
72.8203,179.4
72.8221,541.5
72.8274,17.3
72.8388,113.2
72.8625,18.8
72.8656,139.4
72.8671,92.2
72.8699,104
72.8714,124
72.8801,141.4
72.8867,165.5
72.8942,846.4
72.9054,355.7
72.9208,177.2
72.9303,145.7
72.9368,643.5
72.9561,432.7
72.9616,750.6
72.9716,451.7
73.0017,488.4
73.0044,564.8
73.0073,143.1
73.0083,168.4
73.0185,76.6
73.0415,113.5
73.0479,454.7
73.0612,171.8
73.0647,213.5
73.068,791.9
73.0711,266.6
73.0719,425.4
73.1022,106
73.1121,19.7
73.117,17.7
73.1202,286.7
73.1238,468.6
73.1267,79.9
73.1432,119.9
73.1532,302.1
73.1555,116.3
73.1566,251.7
73.1628,749.6
73.1725,152.1
73.1813,614.8
73.1887,736.3
73.2102,105.8
73.2436,96.5
73.2497,81.9
73.2518,80.5
73.289,86.3
73.2949,21.6
73.3065,294.7
73.311,102.3
73.3127,690.1
73.3269,17.2
73.3374,15.5
73.3409,575
73.3497,425.6
73.3625,106.3
73.408,623.1
73.4172,620.5
73.4498,868.6
73.4514,17.4
73.4696,796.3
73.4734,120.4
73.4809,576.1
73.4826,138
73.4835,498
73.5306,778.3
73.5385,72.5
73.5402,362.2
73.5441,18.9
73.5844,144.2
73.5905,17
73.603,246.4
73.6056,347.5
73.6155,152.9
73.6262,214
73.6272,138.7
73.6418,198.8
73.65,87
73.6749,214
73.68,106.7
73.6913,19.4
73.7342,208
73.7381,439.3
73.7564,331.6
73.757,161.4
73.7604,514.5
73.7648,143.5
73.7786,16.2
73.7811,485.6
73.7947,454.3
73.7981,190.4
73.8129,780
73.8316,165.6
73.8349,82.9
73.84,302.8
73.8449,671.9
73.846,160.3
73.8832,350.4
73.8907,736.7
73.9064,595.2
73.9337,154.2
73.9351,644.5
73.9543,83.4
73.9627,17.3
73.9679,250.1
73.9801,234.4
73.9942,123.1
74.0012,125.6
74.0224,269.8
74.0386,78.7
74.0439,160.8
74.0597,2127.3
74.0699,290.1
74.0719,711.6
74.1118,208.4
74.1142,303.7
74.122,289.6
74.1413,98.4
74.1494,160.4
74.1508,138.6
74.1645,272
74.1875,19.3
74.1972,173.8
74.2074,150.4
74.238,98.5
74.2425,540.5
74.2502,141.2
74.2752,216.9
74.2915,795.6
74.3296,20.4
74.3337,90.1
74.3374,526.4
74.3446,18.1
74.3522,253.6
74.3591,101.2
74.4543,121.2
74.4722,350.2
74.4739,100.7
74.4964,397.1
74.4982,93.5
74.527,190.9
74.5576,158.7
74.5694,93
74.5708,78
74.5741,173.2
74.5757,186.4
74.5951,521
74.6749,109.5
74.6783,254.9
74.7182,210.5
74.7227,91
74.7241,164.4
74.73,151.4
74.7498,199.3
74.7536,758.6
74.7559,277.8
74.7719,178.4
74.7748,84.1
74.777,138.1
74.7977,256.6
74.8032,96
74.8118,95
74.8167,784.5
74.8209,168.8
74.8513,924.5
74.8899,201.1
74.9157,440.5
74.9176,643.7
74.9243,167.9
74.96,301.3
74.9687,130.5
74.9897,325.2
75.0012,106.6
75.0075,385
75.0118,78.4
75.035,787.9
75.0436,16.9
75.049,106.5
75.0678,87.7
75.0783,17.9
75.0814,192.6
75.0816,175.7
75.0835,170.5
75.097,241.1
75.1005,161.8
75.1051,628.8
75.1349,387.7
75.1559,16.6
75.1733,17
75.1883,277.5
75.1892,153.3
75.1968,16.4
75.2239,897.2
75.2317,19.2
75.2326,121
75.2439,16.6
75.2618,686.2
75.2744,518.9
75.2888,120.3
75.334,328.2
75.3465,92.3
75.3551,116.6
75.384,743.3
75.3909,113
75.4005,505.1
75.409,464.5
75.4494,133.6
75.4496,135.2
75.4506,148.7
75.4594,670.9
75.4864,210.9
75.4984,176
75.5026,166.3
75.5349,91.8
75.5359,251.2
75.552,132.2
75.5702,84.2
75.5829,156
75.5882,81.2
75.5982,84.2
75.6134,340
75.6308,157.8
75.634,623.5
75.649,102.8
75.6507,79.9
75.6561,208.8
75.6694,361.9
75.7293,137.8
75.7919,134.8
75.8018,800.6
75.817,688.8
75.8372,143.8
75.8501,93.7
75.8539,363.8
75.8996,123.9
75.9054,19.2
75.9129,213.4
75.9228,23.8
75.9401,160.1
75.9857,116.2
76.005,171.9
76.0107,114.7
76.0182,847.9
76.0214,834.7
76.061,130.3
76.0844,16.6
76.1029,90
76.1137,507
76.1167,734.5
76.1184,102.2
76.1394,822.4
76.156,79.6
76.1707,165
76.2122,16.4
76.2232,227.9
76.2249,154
76.2371,88.9
76.2385,229.2
76.244,175.1
76.2456,159.6
76.3173,81.4
76.333,220.1
76.3402,333.7
76.3832,131.6
76.3844,178
76.3876,131
76.4003,137.8
76.4292,115
76.4435,437.5
76.4522,117
76.463,230.1
76.4898,17.4
76.4907,208.4
76.5035,368
76.5483,676.7
76.5642,106.1
76.6226,125.6
76.6317,171.6
76.6447,331.3
76.6566,201
76.6622,153.4
76.6628,361
76.6644,122.7
76.68,457.7
76.6828,270.2
76.708,165.2
76.7472,149.8
76.7689,511.9
76.7699,392.7
76.7708,17.2
76.9021,185.7
76.907,315.6
76.9281,351.8
76.9529,20.8
76.9559,506.2
76.9591,88.1
76.968,149.7
76.9907,677.4
76.9937,253.4
77,534.7
77.0166,472.4
77.0322,358.8
77.0333,16
77.0349,782.4
77.0361,128.8
77.0383,105330
77.0538,17.7
77.0584,119.8
77.0816,18.2
77.1023,335.2
77.1508,627.5
77.176,221.1
77.1778,404.9
77.1784,736.4
77.1808,18.2
77.193,110.4
77.197,686.6
77.2043,747.5
77.2253,350.2
77.2764,400.3
77.2792,135.9
77.2953,574.8
77.3262,780
77.3404,18.1
77.3598,523.3
77.3699,756.8
77.3735,237.6
77.3796,19.8
77.3937,476.5
77.4105,775.6
77.4125,99.7
77.4329,479.1
77.4406,578.2
77.4459,130.2
77.4619,775.5
77.473,432.6
77.486,328.2
77.5016,314.8
77.5355,817.8
77.5473,125.3
77.5549,117.2
77.5617,807.9
77.5624,470.1
77.5834,134.3
77.5975,592.6
77.6018,444.4
77.604,177.8
77.6063,195.6
77.6078,120.9
77.6148,352.6
77.6534,220.6
77.6538,246.5
77.6662,127.9
77.6742,647.7
77.6764,78.9
77.6831,163.6
77.6882,119.6
77.6964,252.7
77.6996,241.8
77.728,212.5
77.7603,110.2
77.7653,275.9
77.7827,199.2
77.8082,301
77.8194,319
77.8213,174.3
77.8374,362.1
77.8893,24.9
77.9196,348.9
77.924,104.2
77.9354,257
77.9385,690
77.9398,763.2
77.9479,105.1
77.9662,114.1
78.0067,146.4
78.0163,483.4
78.0199,18.2
78.0271,168.9
78.0371,138.1
78.0416,3262.7
78.0674,430.1
78.07,750.3
78.0865,328.1
78.092,127.3
78.0929,119.5
78.1026,880
78.1173,105.1
78.1371,369.5
78.1413,138.6
78.1419,791.5
78.1465,19.3
78.1551,314.9
78.1582,846.1
78.1752,475.9
78.1792,334.7
78.1987,407.4
78.2043,212.9
78.2416,87.3
78.2469,88.8
78.259,79.8
78.2652,612.8
78.266,436.4
78.2994,213.7
78.3005,104.5
78.3034,115.8
78.3048,342.9
78.3137,466.7
78.3318,88.4
78.3549,27.1
78.3717,149
78.3875,141.3
78.3879,132.5
78.3938,93.9
78.401,281.9
78.4879,147.5
78.4893,141.8
78.49,98.6
78.6056,89.1
78.6138,842.1
78.6192,558.6
78.6268,339.2
78.7549,673.5
78.7664,351.8
78.774,348.3
78.7839,159.8
78.7842,101.1
78.796,115.8
78.8417,400.4
78.886,493.3
78.907,92
78.9111,279.2
78.919,123.5
78.9265,324.5
78.9431,392
78.9512,178.1
78.9689,151.7
78.9967,118.1
79.0363,16.5
79.0409,112.2
79.0492,99.5
79.0539,1751.2
79.0723,288.4
79.1295,295.9
79.135,781.8
79.1398,519.6
79.1479,191.9
79.1725,533.3
79.1737,120.8
79.1823,146.9
79.2475,110.7
79.2591,160.5
79.3069,135.2
79.3122,113.6
79.3289,115.1
79.3358,316.1
79.3661,165.3
79.375,17.4
79.3785,99.2
79.395,17.2
79.4,716.8
79.4137,264.5
79.4198,92.9
79.494,124.3
79.516,722.4
79.5186,150.4
79.5195,346.1
79.5308,158.5
79.5476,21.3
79.5603,329.4
79.5874,565.6
79.6035,173.8
79.6065,360.4
79.6135,85.2
79.6243,658.9
79.6294,968.2
79.6315,127.1
79.6684,359.5
79.6794,80.2
79.69,718.1
79.7011,216
79.7264,705.7
79.7364,301.5
79.7375,846
79.7607,633.5
79.7739,180.5
79.7749,411.3
79.7853,115.2
79.7896,130.9
79.8128,675.3
79.817,132
79.946,463.6
79.9798,127
79.9853,309.2
80.0029,140.9
80.0279,820.2
80.0577,104.5
80.0623,203.5
80.0883,359.8
80.0929,550.9
80.0974,86
80.1024,416.7
80.1127,335.8
80.148,91.1
80.1599,704.7
80.2218,447.9
80.2221,452.8
80.2262,819.5
80.235,233.9
80.2369,122.7
80.2665,781
80.2753,73.2
80.2761,94.7
80.2955,96.9
80.2969,90
80.3192,809.8
80.325,294.4
80.366,325.7
80.3721,16.9
80.3857,711
80.456,382
80.4884,17.2
80.4923,537.3
80.5097,535.6
80.5249,143.7
80.5298,277.4
80.5467,276.5
80.5687,241.1
80.5793,89.5
80.5927,333.3
80.6106,374.2
80.6238,87.9
80.6431,170.2
80.6552,17.8
80.6817,16.8
80.7048,17.2
80.7372,803.5
80.7423,612.3
80.79,460.7
80.7936,18.4
80.8044,632.4
80.8195,155.1
80.8386,149.5
80.8587,469.9
80.86,142.2
80.8641,213.7
80.8739,103.5
80.877,696.1
80.8847,342.8
80.8876,113.6
80.9235,253.3
80.9389,612.6
80.9475,22649.7
80.9663,216.3
80.9705,727
80.9967,464.5
80.999,21.9
81.0083,171
81.0504,468.5
81.0696,993.3
81.0746,312.1
81.0862,228.7
81.091,254.2
81.1008,112.2
81.1052,20.1
81.1148,533.5
81.1642,18.7
81.1649,444.6
81.1651,447.4
81.1663,1341.1
81.1673,1182.1
81.1683,349.2
81.169,281.8
81.1697,1333
81.1708,435.3
81.1713,409
81.1725,120.7
81.1729,143.5
81.1735,137.1
81.1739,285.5
81.1749,84.9
81.2113,155.6
81.2206,140.4
81.222,658.5
81.2238,165.1
81.2426,92.7
81.2436,553.4
81.25,131.9
81.2548,158.5
81.2649,355.3
81.2738,105.4
81.2788,236.5
81.2859,16.3
81.3278,132.2
81.3597,490.9
81.3644,117.6
81.3744,110.7
81.3752,267.1
81.3864,179.2
81.3958,84
81.4081,97.9
81.4114,136.8
81.4325,143.8
81.4334,99.6
81.4456,476.6
81.457,21.2
81.4732,1002.7
81.48,164.9
81.4837,293
81.507,112.8
81.5117,467.1
81.54,18
81.5474,355.4
81.5496,316.7
81.5563,233.5
81.5612,212.7
81.6129,113.6
81.6291,19.1
81.6385,114.7
81.6893,283.5
81.72,268.2
81.7553,145.8
81.7673,177.5
81.7926,18.3
81.8089,166.9
81.8113,143.7
81.816,181.2
81.8233,100.3
81.8296,306.4
81.8313,82.1
81.8371,306.9
81.8474,784.6
81.8522,104.5
81.8641,471.7
81.9139,230.1
81.9146,322.7
81.9167,421.7
81.9435,115
81.9495,564.6
81.9822,110.8
82.0001,19.4
82.0626,118.4
82.0951,204.1
82.1113,191.4
82.1126,19.6
82.1683,114.2
82.2302,322.3
82.2373,524.8
82.2628,989.7
82.267,763.5
82.2755,16
82.2913,321.8
82.322,137.4
82.3507,171.9
82.3719,544.3
82.3804,318.5
82.4001,114.5
82.4131,778.9
82.4455,215.5
82.448,185.9
82.4649,351.9
82.4754,340.5
82.4892,105
82.5389,625.4
82.5818,504.4
82.5957,724.3
82.5998,830.6
82.6464,18.9
82.6499,113.3
82.6762,91.8
82.6828,136.6
82.7177,87.5
82.7241,700.8
82.7458,599.5
82.7553,156.6
82.769,175.4
82.7725,111.8
82.7793,99.5
82.7894,416.5
82.8107,18.7
82.8128,460.1
82.8257,892
82.8284,100.6
82.8392,476.6
82.8465,659.3
82.88,379.3
82.8836,300.9
82.9051,282
82.9064,880.2
82.9128,20.7
82.9357,514.6
82.9446,4816.5
82.9641,112.8
83.0213,137.4
83.1379,86.8
83.1419,239.6
83.1581,126.1
83.1583,146
83.1586,100.2
83.1918,137.8
83.194,148.9
83.2785,160
83.281,118.9
83.2924,163.1
83.3035,314.2
83.3085,86.2
83.3204,105.5
83.3408,94.5
83.3523,335.9
83.3535,223
83.3673,328.3
83.372,77.5
83.4068,103.1
83.4834,299.7
83.5489,223
83.6672,17.3
83.6716,220.8
83.6778,119.7
83.689,94.2
83.708,648.8
83.709,126.3
83.7425,98.8
83.7611,466.4
83.7632,19.2
83.7738,100
83.7854,147.3
83.8091,800.1
83.8134,172.6
83.8218,114.1
83.8235,135.7
83.8388,109.4
83.8716,111.2
83.877,104.1
83.8866,819.2
83.9294,632.9
83.9707,94.1
84.0331,148.8
84.0441,118.4
84.0547,341
84.1154,99.4
84.1404,98.8
84.1638,104.6
84.1665,291.2
84.1675,147
84.1832,257.9
84.1998,184
84.2012,727.4
84.2022,238
84.2397,179.5
84.2576,116
84.2603,216.5
84.3257,980.1
84.3554,87.2
84.3753,123.3
84.3803,118.7
84.4134,16.9
84.4272,383.4
84.4401,922.8
84.4494,17
84.4799,88.9
84.4886,100.4
84.5109,739.7
84.5507,330.8
84.5601,670.4
84.6174,313.4
84.6364,363.6
84.638,241.5
84.6388,21.2
84.6478,163.8
84.6541,17.2
84.6628,702.6
84.6673,135
84.687,303.5
84.7016,225.5
84.7473,202.6
84.7568,174.3
84.7759,80.7
84.8071,106.1
84.8145,302.3
84.8165,803.5
84.8265,87.4
84.8673,706.1
84.8712,85.5
84.8998,343.6
84.9077,631.8
84.9137,579.3
84.9363,111.2
84.9383,675.3
84.951,261
84.9594,14611.4
84.9698,163.7
84.9711,355
84.988,168.4
84.9998,125.8
85.005,143.1
85.0436,157.9
85.0671,386
85.0688,607
85.081,129.3
85.1047,245.4
85.1115,511.5
85.1174,264.1
85.1191,182.2
85.1278,542.7
85.1303,280.2
85.1755,377.3
85.2337,119.5
85.2526,99.3
85.2766,215.3
85.335,923
85.341,102.1
85.3719,18.5
85.3863,146.6
85.3903,240.5
85.4064,129.2
85.468,273
85.5073,130
85.5322,147.6
85.5329,19.3
85.5726,326.8
85.5907,120.1
85.6072,87.5
85.6128,216.9
85.6328,179.8
85.6594,148.9
85.7191,19.2
85.729,218.4
85.7299,131.6
85.75,203.7
85.7623,627.8
85.7783,95
85.7874,91.3
85.8001,237.3
85.8207,116.4
85.8251,350.6
85.8624,132.6
85.87,173.1
85.8791,516.7
85.9187,109
85.9625,182.3
85.9796,319.8
85.9841,17
86.011,523.9
86.0226,707.1
86.0497,118
86.0598,29098.2
86.0962,114363.3
86.0977,718.7
86.1597,96.7
86.1655,842.5
86.2058,200.2
86.2314,452.7
86.2573,98.7
86.2698,376.6
86.2835,120.8
86.3176,108.2
86.3519,350.8
86.3593,884.3
86.363,606.1
86.3687,457.7
86.3689,416.5
86.3715,303.8
86.3845,692
86.4228,118.5
86.4314,835.2
86.4429,333.7
86.4476,208.7
86.448,322.1
86.4482,290.9
86.4605,589.1
86.4789,17.5
86.4817,109.1
86.5426,680.6
86.5664,336.6
86.5696,102.5
86.588,495.8
86.593,416.8
86.6331,206.1
86.6549,174
86.7173,615
86.724,150.6
86.7286,382.6
86.7432,165.5
86.7582,262.1
86.7591,253.3
86.8474,349.9
86.8614,198.8
86.874,163.3
86.8909,98.9
86.9251,252.8
86.9454,667
86.9525,120.2
86.9559,19.8
86.9854,104.4
86.9888,322
86.9952,121.4
87.0025,156.2
87.014,105.3
87.0291,766.8
87.0561,20.9
87.0939,261.4
87.1068,169.4
87.1174,134.8
87.1366,567
87.1388,18.8
87.1516,400.9
87.1579,97.3
87.2234,127.7
87.2556,197.3
87.2569,188.9
87.2877,299.3
87.3043,168.6
87.3196,227.6
87.3425,346.1
87.3889,124.3
87.428,157.2
87.4736,175.8
87.4828,21.8
87.4915,665.6
87.492,333.6
87.5144,296.6
87.5156,15.6
87.518,885.7
87.5319,120.3
87.5462,530.7
87.5856,203.5
87.5919,651
87.5996,518.6
87.6373,184.3
87.6635,371.1
87.6725,17.2
87.6817,25.3
87.6853,306.8
87.6962,180.9
87.7058,159.4
87.7093,708.7
87.7279,786
87.7498,117.4
87.7916,23.5
87.8126,544.8
87.8171,608.2
87.8338,152.2
87.8426,378.8
87.8569,919.3
87.9104,614.1
87.9171,103.7
87.9483,142.8
87.9775,760
88.0212,175.5
88.0391,6514.3
88.0865,311.2
88.0988,625.1
88.1104,406.1
88.1325,189.5
88.1514,393.1
88.1536,266.1
88.1635,898.7
88.1641,617.5
88.1655,292.9
88.1699,18.2
88.1711,187.9
88.1758,158.7
88.1805,368.2
88.1845,525.3
88.1937,900
88.1944,541.4
88.1964,522
88.2297,189.4
88.2479,495.8
88.2544,657.2
88.2839,882.8
88.4131,223.4
88.416,769.6
88.4284,548.5
88.4395,406.2
88.4475,172.9
88.4578,738.8
88.4731,17.6
88.4913,369.3
88.4993,145.5
88.5262,920.9
88.5281,18.3
88.5455,93.5
88.5462,89
88.5623,310.1
88.5903,245.8
88.5985,569.8
88.6043,126.9
88.6059,247.9
88.6241,299.4
88.6748,158.5
88.6778,16.9
88.6811,822.1
88.7305,117.2
88.7754,526
88.7858,660.3
88.7938,237.3
88.7985,112.9
88.8235,253.2
88.8275,19.4
88.837,605.4
88.8494,172.4
88.8658,256.5
88.8681,577.1
88.8762,493.3
88.9122,445.5
88.9187,106.5
88.9299,94.1
88.9379,561.2
88.9521,75.1
88.9559,135.5
88.9911,127.3
89.0004,265.5
89.0146,157.2
89.015,171.6
89.0187,586.6
89.0217,93.4
89.0268,533.4
89.0572,160
89.0597,22
89.0833,148.8
89.0879,170.1
89.0897,855.4
89.1241,124.8
89.1278,621.1
89.1368,174
89.1565,208.2
89.1613,85.9
89.1822,380.5
89.2211,362
89.2265,785.4
89.2399,211.9
89.2424,145.1
89.2584,207.9
89.2826,175.3
89.3503,18.8
89.4027,220.5
89.4376,21.1
89.4394,135.9
89.4675,94.1
89.4969,331.1
89.5209,682.7
89.5235,740
89.5321,190.8
89.5455,16.9
89.548,185.8
89.5761,16
89.5768,15.9
89.5813,245.5
89.5859,372.4
89.6106,388.9
89.6343,458.2
89.7465,576.3
89.7752,488.8
89.8345,119.6
89.8958,18.8
89.8982,160.7
89.9116,186.5
89.9351,167.6
89.9423,77.4
89.9635,342.4
89.9818,98.4
90.0088,90.4
90.018,206
90.0546,367.3
90.1902,513.6
90.2007,99.5
90.21,647.6
90.2507,485.6
90.3013,119.1
90.3066,907.8
90.3286,192.3
90.3437,152.2
90.3578,708.5
90.3678,105.8
90.3841,220.8
90.4345,17.1
90.5223,306.9
90.5325,374
90.5366,555.1
90.5469,112.8
90.6115,818.9
90.6172,126.1
90.6237,341.3
90.6403,195.4
90.6757,450.4
90.712,344.3
90.7423,361.2
90.7593,352
90.765,859.2
90.8058,19
90.8228,793.3
90.8292,759.5
90.8567,114.2
90.903,69.7
90.9093,76.3
90.9417,950.4
90.9475,3286.6
90.9561,228.5
90.9652,102.9
90.9764,4414.4
91.054,2858.8
91.055,89.4
91.069,107.9
91.0727,558.7
91.0893,788.9
91.1043,127.5
91.1174,113.2
91.1215,275.4
91.147,208.8
91.1609,598
91.1624,132.2
91.1659,163.2
91.1708,138.6
91.2092,194.3
91.212,18.8
91.217,389.5
91.218,191.1
91.2386,474.7
91.2495,468.1
91.2515,172.9
91.298,181.2
91.317,1221.1
91.3869,448.4
91.4058,105.6
91.4111,298.5
91.4258,143.2
91.4692,117.2
91.4733,214.7
91.4997,310.8
91.5109,107.2
91.5554,156.3
91.5637,368.4
91.5814,131
91.6151,23.2
91.6289,17.8
91.6302,530.9
91.6386,220.9
91.6574,18.6
91.6856,151.5
91.6888,112.2
91.6999,768.4
91.737,170.2
91.7492,802.6
91.7611,101.5
91.8111,300.2
91.8228,549.9
91.8714,506.9
91.8783,111
91.9416,582.1
91.948,32.9
91.9536,111.4
91.9851,591.8
91.9902,116
92.0492,118.8
92.0516,760.1
92.0568,500.6
92.074,1284.4
92.0856,770.6
92.0921,140.2
92.1245,185.8
92.1493,412.5
92.1614,226.8
92.2131,790.2
92.2156,123.8
92.2369,74.7
92.2574,91.2
92.2749,143.9
92.2879,239.7
92.2942,151.4
92.3927,228.1
92.423,353.3
92.4288,105.4
92.4379,95.2
92.4444,150.4
92.4548,342.9
92.4728,17.7
92.49,610.6
92.5018,753.4
92.5371,95.4
92.5424,196
92.5533,17.3
92.5639,160.2
92.5973,240.8
92.6078,464.3
92.6346,306.4
92.6397,167.6
92.6423,138.3
92.6459,94.6
92.648,104.7
92.6956,479
92.7013,291.1
92.7584,109.1
92.759,646.4
92.7924,107.9
92.8144,128.1
92.8264,130.7
92.861,116.1
92.8803,17.1
92.8814,798.5
92.8863,757.3
92.904,106
92.905,123.6
92.9442,189.3
92.9552,195.6
92.9682,575.5
92.9759,402.5
92.9837,101.1
93.0125,397.3
93.0211,112.3
93.0353,181.8
93.0522,208.5
93.0668,154.9
93.0697,53.2
93.1016,598.8
93.1177,375.8
93.1337,18.1
93.1366,104.3
93.144,313.1
93.1819,662.5
93.2295,18.2
93.2376,127.9
93.2538,283.3
93.2653,214.9
93.2738,109.4
93.2759,94.7
93.2958,662.3
93.3165,784.4
93.3308,183.1
93.3371,249.5
93.3402,138.6
93.3444,143.1
93.3564,18.7
93.3847,100.3
93.388,681
93.4241,165.2
93.4305,359.1
93.4365,211.1
93.4496,97.1
93.4511,172.5
93.4542,227.9
93.4653,105
93.468,803.6
93.4848,74.5
93.4979,722.1
93.5662,173.3
93.5848,419.5
93.6308,17.6
93.6644,664.3
93.73,736.6
93.7483,107.9
93.768,23
93.7917,266.8
93.8054,517.7
93.8135,97.4
93.8189,1157.4
93.8384,372.4
93.9193,896.3
93.9337,477
93.9517,146.6
93.9747,18.8
93.9868,169.9
94.0063,785.5
94.0411,63845.3
94.0792,258.7
94.0843,17.1
94.0853,133.1
94.0988,784.6
94.1013,15.9
94.1405,470.8
94.1449,146.3
94.2688,411.7
94.2844,20
94.2868,155.5
94.292,541.9
94.3055,133
94.3115,18.9
94.3433,465.4
94.3441,17.5
94.3503,550.4
94.3589,756.5
94.3952,445
94.4129,137.5
94.421,222.5
94.442,494.2
94.4504,134.5
94.454,127.1
94.4669,768.5
94.4688,867
94.4857,203.7
94.501,228.9
94.5719,117.9
94.5758,436.7
94.5962,135.2
94.6342,816.3
94.6404,103.7
94.6732,322.5
94.7277,752.1
94.7401,109.4
94.7809,146.5
94.7968,119.2
94.8002,783.5
94.8104,103
94.8645,841.7
94.8803,136.1
94.8814,18.7
94.9133,587
94.9647,154.8
94.9983,103.5
95.0013,127.2
95.009,360.5
95.0112,217.7
95.0155,296.7
95.0239,126.5
95.0349,439.1
95.0393,26.8
95.0445,1098.9
95.0459,22.9
95.0462,32.9
95.0489,379458.8
95.0508,171
95.0527,146.2
95.0673,157
95.0853,180.4
95.0893,26.1
95.0924,335.3
95.0933,252.3
95.0987,168
95.1027,86.4
95.1114,125.3
95.1262,168.7
95.1422,85.3
95.1445,18.6
95.1525,108.7
95.2087,16.5
95.2176,81.6
95.2637,218.2
95.2841,125.1
95.3122,193.4
95.3311,342.8
95.3705,290.8
95.3737,151.7
95.389,265.6
95.4346,120.5
95.445,232
95.466,112.8
95.482,771
95.5248,19.6
95.5499,784.8
95.5999,105.1
95.6025,191.1
95.6042,20.8
95.6323,19.4
95.6386,367.6
95.655,124.9
95.6945,122.2
95.698,90.5
95.7225,501.3
95.7233,924.2
95.7482,663.6
95.7619,229
95.7736,186.3
95.7792,137.7
95.8045,116.3
95.8124,19.6
95.8285,117.6
95.8333,19.5
95.85,129.1
95.8622,215.3
95.88,270
95.8908,850.6
95.9043,1279.3
95.9118,122
95.9415,535.8
96.0267,608.7
96.0328,18.5
96.0523,16096
96.0746,237.2
96.0858,110.1
96.1701,89.5
96.1773,90.6
96.1796,447
96.2138,578.5
96.2717,1449.7
96.2926,110
96.3112,141.9
96.3122,401.3
96.3288,119.5
96.3494,121.7
96.3665,194.3
96.3837,167.1
96.3864,101.2
96.4241,354.9
96.4423,79.7
96.4446,227.5
96.4507,110.3
96.4605,721.5
96.4755,849.7
96.5345,228.9
96.5773,573.4
96.5917,19.3
96.5965,354.1
96.6053,19.1
96.6066,132.1
96.6083,18.1
96.6334,142.2
96.6406,22.9
96.6942,93.5
96.6951,128.7
96.7046,82.9
96.7084,173.8
96.7994,448.1
96.8253,178.1
96.8567,104
96.8679,626.3
96.8882,91.1
96.9216,98780.5
96.9294,732.6
96.9372,304.8
97.0074,96.6
97.0104,54.6
97.0531,71.2
97.0556,44
97.0646,20.8
97.0807,246.9
97.0832,750
97.0944,206.8
97.1009,50
97.1354,116.2
97.1379,103.6
97.1695,95.9
97.2343,991.3
97.2465,661.9
97.2547,157.9
97.2583,755.4
97.2746,192.7
97.3119,93.1
97.3313,17.2
97.336,16.2
97.4038,320.4
97.4068,150.2
97.4269,95
97.4657,796.7
97.4739,146.6
97.5013,163.3
97.5258,89.6
97.5292,19.9
97.5319,17.8
97.5447,102
97.6344,592.1
97.6375,442.3
97.6454,700.8
97.6525,535.5
97.6922,639
97.6992,124.4
97.7079,877.3
97.7403,164.9
97.7921,513.5
97.8087,150.6
97.8207,292.2
97.8693,25.4
97.9762,520.9
97.9877,427.9
98.0009,348.9
98.0021,228
98.0157,602.6
98.038,17.6
98.0696,17
98.0705,388.6
98.0844,17.6
98.0849,15.3
98.0985,268.4
98.1068,18.2
98.1215,170.2
98.1619,154.6
98.1913,89.3
98.1986,102.5
98.2667,170
98.273,162.7
98.2756,181.8
98.2866,515.5
98.329,164.1
98.3373,269.1
98.3411,105.5
98.3577,144.7
98.3728,88.1
98.4247,19.6
98.4346,615.9
98.4448,109.7
98.5408,428.7
98.5422,131.4
98.5537,124.3
98.5824,756.5
98.6292,150.7
98.646,18.8
98.6573,626.2
98.6737,90.4
98.6776,114.6
98.6985,727.6
98.7008,268.1
98.7028,160.2
98.7466,779.1
98.7606,94.9
98.7763,706
98.7781,81
98.7841,89.6
98.8222,306
98.8622,106.9
98.8725,151.1
98.9,306.7
98.9021,253.8
98.9186,23677.1
98.9196,1899.7
98.9751,7059.9
98.984,193.1
98.9958,444.2
98.9972,164
99.0423,95.7
99.0439,529.6
99.0762,17.8
99.0865,384
99.0901,437.4
99.1291,129.3
99.1627,523.1
99.1704,184.3
99.193,18.1
99.2079,396.1
99.2744,18.5
99.3008,131.7
99.3135,450.5
99.3171,116.8
99.3419,116.5
99.3492,205.6
99.4116,166.3
99.4525,108.5
99.464,118.6
99.4781,333.7
99.489,615.3
99.504,233.1
99.5454,126
99.5469,744.5
99.5994,88.6
99.6235,352.7
99.6376,344.3
99.6828,97.4
99.6848,106.6
99.7141,19.3
99.7355,177
99.7466,325.9
99.8051,115.2
99.8277,318.6
99.8365,95.5
99.8926,78.1
99.9121,167.5
99.9272,160.2
99.9418,268.9
99.9508,512.2
99.9944,19.7
100.0622,305.8
100.0755,175.6
100.0812,736.4
100.0834,21.1
100.087,877.1
100.1823,392.3
100.217,16.9
100.2492,192.7
100.2574,361.6
100.301,631.6
100.3116,941.3
100.3204,514.8
100.3229,225.5
100.3288,182.5
100.4212,773.8
100.4367,157.7
100.4588,521.5
100.4681,248.9
100.4768,127.1
100.5366,516.6
100.5412,127.3
100.559,334.6
100.5937,215.8
100.6343,496.3
100.6563,286.5
100.6734,148.8
100.7669,107.8
100.7725,125.6
100.7742,441.4
100.7771,18.4
100.7808,232.2
100.8046,92.7
100.8538,289.5
100.8697,801.4
100.8747,557.4
100.9049,150.7
100.9078,326
100.9088,17.1
100.9128,458.6
100.9167,550.9
100.9226,18.2
100.9967,87.1
100.9994,584.8
100.9998,624.5
101.0177,20.2
101.0424,19.9
101.047,1744.6
101.0623,118.4
101.0707,746.6
101.0767,190.1
101.0981,87.1
101.1079,149.4
101.1657,91.5
101.2102,243.7
101.2471,114.7
101.2638,104.1
101.3608,22.1
101.3808,184.1
101.383,306.8
101.3855,129.5
101.3999,359.1
101.4081,18.7
101.4234,132.3
101.4344,138.6
101.4556,97.6
101.52,482.4
101.5552,86.5
101.5562,408.5
101.5597,152.4
101.571,179.3
101.5898,92.5
101.6387,136
101.6441,75.6
101.6718,392.1
101.7314,139.6
101.7372,286.3
101.7576,19.2
101.7698,104.3
101.7927,159.7
101.8291,142.4
101.8344,101.7
101.9041,245.4
101.9438,131.8
101.9492,288.8
101.9604,895.1
101.9635,144.2
101.9777,133.1
101.9812,16.8
102.0062,120.1
102.0291,196.8
102.0363,309.3
102.0521,105.7
102.0548,3024.5
102.0635,119.4
102.068,779.3
102.069,582.1
102.0957,90.3
102.0978,397.9
102.1298,159.9
102.1374,144.4
102.2207,141.3
102.2211,144
102.2356,169.7
102.2423,528.5
102.2445,154.6
102.252,21.4
102.2718,17.2
102.2807,19.8
102.2844,638.8
102.2956,501.4
102.3028,126.8
102.3211,608.5
102.3384,109.9
102.3529,97.2
102.3856,101.3
102.4002,139.3
102.4075,215.3
102.4564,746.5
102.4603,127.5
102.4715,120.7
102.4723,519.1
102.474,97.2
102.4758,177.3
102.4836,103
102.5106,327.3
102.5158,189.9
102.5222,108.4
102.53,308.4
102.5743,99.7
102.6047,93.3
102.6248,168.8
102.6481,94.9
102.7056,23.1
102.8075,17.9
102.8124,146
102.8594,307
102.8898,691.3
102.9475,24.6
102.9497,198.7
102.9679,171
102.9701,433.2
102.9916,128.1
103.0137,122.9
103.051,149.4
103.0549,17.9
103.0689,128.3
103.0818,90.8
103.1117,418.9
103.1367,739
103.19,116.5
103.194,89.4
103.2185,472.7
103.2326,108.7
103.2677,750.1
103.3166,462
103.4361,161.4
103.5382,268.3
103.5407,798.9
103.5619,254.9
103.5633,18.2
103.5806,115.5
103.6738,408.8
103.6846,99.9
103.6879,377.8
103.6984,216.6
103.746,167.4
103.7604,17.3
103.7796,111.5
103.7933,115.6
103.8078,178.2
103.8506,893.3
103.8552,334.6
103.8972,332.2
103.9064,457
103.9129,218.7
103.9138,269.1
103.9196,219.8
103.9411,565.6
103.9503,106.7
103.9723,20.1
103.9792,262.9
104.0654,79.3
104.0776,735.3
104.0832,167.2
104.1068,405667.4
104.1501,463.3
104.184,243.4
104.1876,217.9
104.2032,355.2
104.207,128
104.2102,86.8
104.2173,373.6
104.2332,152.4
104.24,147
104.3039,93.6
104.3057,348.8
104.3161,397.3
104.325,152.1
104.334,546
104.3415,94
104.3743,20.3
104.3795,102
104.3981,83.3
104.4121,177.1
104.4364,643.2
104.4648,92.1
104.4845,690.7
104.4909,187.3
104.5274,281.5
104.5927,271.6
104.5992,308.1
104.6292,195.7
104.6518,445.2
104.7142,237.9
104.7513,182.7
104.8296,437.3
104.8307,113.1
104.8389,542.6
104.8521,165.3
104.9342,247
104.9479,119.3
104.9632,4576
104.9923,621.9
105.0031,55.8
105.0056,88.8
105.0446,32901.3
105.0696,44.8
105.0726,371.4
105.1102,12324.7
105.1472,465.2
105.1777,130.2
105.1794,1033.3
105.213,106
105.2635,675.1
105.2696,18.4
105.3003,115.3
105.3269,123.3
105.4135,168.1
105.415,98.5
105.4198,293.4
105.4214,787.2
105.4351,125.3
105.4402,121.6
105.4641,690.4
105.4669,645.4
105.5394,236.3
105.5411,467.6
105.6324,400.7
105.6501,34
105.6598,108.3
105.6707,110.3
105.7066,343.3
105.7307,85.8
105.7728,130.9
105.7806,381.4
105.8031,21.3
105.8204,722
105.8443,340.3
105.8692,494
105.8926,161.4
105.9034,238.6
105.9636,51.8
105.9865,111
106.0238,100.4
106.0293,776.1
106.048,1036.3
106.0649,26.8
106.1001,239.4
106.1415,554
106.1653,105.1
106.1818,316.6
106.2263,143.5
106.2434,149.3
106.2484,16.8
106.2668,118.1
106.3431,162.4
106.3641,457.7
106.3732,168.5
106.385,353.9
106.3958,339.5
106.3992,470.5
106.451,627.8
106.4913,17.1
106.5092,20.2
106.5169,145.6
106.5292,173.7
106.5557,824.1
106.5669,579.8
106.5719,83.9
106.5752,122.4
106.6884,96.3
106.7005,903.1
106.7052,661.3
106.7177,809.4
106.755,462.6
106.7752,474
106.8107,23
106.8176,718.3
106.8338,160.9
106.8386,106.8
106.8471,530.1
106.8495,310.6
106.8727,18.4
106.9391,396.6
106.9433,24.5
106.9504,2581.9
106.9536,131.5
106.9635,112.3
106.9918,47.5
106.9974,109.6
107.0001,200.2
107.0095,103.9
107.0281,38.7
107.049,533.2
107.06,18.7
107.0854,17.9
107.0878,321.6
107.1202,179
107.1318,95.8
107.1414,168
107.1646,116.4
107.1746,17.5
107.1927,110.8
107.2133,589.5
107.2235,252
107.2598,20.6
107.2934,233.6
107.3427,173.7
107.3525,201.2
107.3587,19.8
107.3681,105.7
107.3771,122.9
107.3944,330
107.4436,18.4
107.4452,819.5
107.5113,84.5
107.5586,293.9
107.5611,22.7
107.5963,198.1
107.6334,134.3
107.6387,114
107.7004,307.9
107.7318,94.2
107.7404,147
107.7706,927.1
107.7732,121.3
107.7859,163
107.7894,510.8
107.8337,245.4
107.8478,186.6
107.9067,124.5
107.9103,216.7
107.9275,552.3
107.9341,286.8
107.9752,606.9
107.9784,607.5
108.0049,167.3
108.0129,486.6
108.0286,182.3
108.0501,16.5
108.0558,149.1
108.0568,42.9
108.1065,121.9
108.218,377.9
108.2271,17.6
108.2377,138.6
108.3084,483.5
108.3124,113.6
108.3285,337.6
108.3325,275.1
108.367,160.2
108.4242,720.1
108.4275,351.1
108.4485,877.7
108.4753,503.8
108.5216,190
108.5327,229.2
108.5573,359.6
108.5662,633.2
108.6682,122.5
108.6892,103.3
108.7073,96.3
108.7114,157.6
108.7124,344.6
108.7169,17.7
108.7276,593.2
108.7438,133.4
108.7694,574.9
108.8045,428.3
108.8476,742.8
108.8596,163.4
108.8798,1028.2
108.8826,359.1
108.8979,264.3
108.9028,509
108.9583,824.6
108.9807,80.5
108.9931,384.3
108.9971,468.2
109.0105,51.8
109.0397,17
109.058,119.7
109.0646,70348.6
109.0662,20.3
109.0667,19.4
109.101,155.4
109.1289,163.7
109.1553,98.8
109.2218,118.7
109.2225,115.4
109.2345,213.3
109.2411,400.4
109.2464,117.1
109.3234,152.3
109.3382,149.6
109.3669,262.4
109.4432,725.9
109.4788,194.1
109.5049,242.7
109.5063,491.5
109.508,108
109.5179,477.7
109.5303,459.9
109.547,375.4
109.5832,130.5
109.5962,506.4
109.6544,197.8
109.6883,17.7
109.6941,79.2
109.7771,294.3
109.7787,17.8
109.8297,19.4
109.8688,747
109.8954,166
109.9329,120.2
110.0061,107.8
110.0079,826.7
110.0101,97.1
110.0399,88.2
110.0471,130.2
110.05,165
110.0578,133
110.068,2108.8
110.0711,2829.9
110.0887,189.2
110.1035,847.5
110.1162,742
110.131,137.1
110.1458,131
110.1745,576.5
110.2114,193.6
110.2923,360.1
110.3518,609.7
110.365,704.9
110.3853,18
110.3895,576.4
110.3906,17.4
110.405,122.4
110.4077,119.8
110.4342,501.9
110.4401,207.1
110.4481,116.8
110.4697,166.7
110.5269,526
110.5437,135.7
110.5689,17.6
110.587,18.7
110.6777,18.7
110.6842,320.7
110.6922,110.8
110.7279,159
110.7321,17.5
110.7645,135.2
110.7697,217.1
110.7767,468.6
110.7842,20.1
110.8047,505.6
110.8155,150.5
110.8417,142.6
110.8465,632
110.8668,163.5
110.9036,195.7
110.9087,187.5
111.0231,280.5
111.0439,228.1
111.0501,364.5
111.052,287.7
111.0546,457.3
111.0889,95.6
111.0914,79.5
111.1036,861.3
111.1234,154.7
111.1627,152.7
111.2151,253.4
111.221,172.3
111.2366,619
111.2751,135.2
111.2991,163
111.3259,262.1
111.3274,751.2
111.3469,89
111.3756,249.1
111.4055,188.6
111.4659,290.5
111.4904,474.1
111.6316,173.5
111.687,170.5
111.6976,133.4
111.7631,630.6
111.7951,126.8
111.8132,239.9
111.8432,803.3
111.9304,280.4
111.947,621.4
111.982,16.9
112.0057,91.2
112.0518,345.3
112.0636,210
112.0655,455
112.0751,437.6
112.0851,422
112.0913,637.6
112.0954,379.9
112.0993,42.8
112.1312,150.4
112.1451,248.9
112.167,99
112.1759,311.9
112.2209,183.6
112.2803,344.7
112.2843,86.1
112.35,17.4
112.3553,765.4
112.3584,17.5
112.3951,811.7
112.4455,820
112.4708,130.8
112.4932,810.8
112.5527,20.5
112.5548,446.7
112.5597,144.4
112.5953,209.9
112.658,164.2
112.659,806.1
112.675,509.8
112.6831,16.4
112.72,161.2
112.7464,137.4
112.7665,86.3
112.7704,86.5
112.8188,464.9
112.8896,112.2
112.8956,432865.4
112.9223,185.9
112.9261,368.1
112.9389,120.2
113.0037,282.6
113.0286,258.9
113.0482,413.2
113.0553,828.8
113.0633,319.3
113.0926,200
113.1072,615.4
113.121,683.7
113.1849,472.1
113.1889,112.7
113.2004,107.4
113.2241,138.5
113.2458,389.3
113.2493,153.1
113.3212,615.7
113.3576,699.3
113.3856,355.8
113.4676,259.2
113.4832,163.6
113.5404,349.5
113.5755,241
113.5933,805.6
113.5962,343.8
113.6137,139.5
113.7604,82.4
113.767,228.3
113.8096,157.9
113.8277,451
113.9185,16.2
113.9405,112.8
113.9505,218.7
113.9564,151.6
113.9764,24.8
114.0548,44503.6
114.066,780
114.0874,21.1
114.0987,655.3
114.1017,353.9
114.1093,287.5
114.1355,640.4
114.1397,144.7
114.1545,111.7
114.159,189.3
114.1647,338.1
114.186,85.9
114.2649,17.6
114.376,94
114.3897,529.8
114.4156,16.4
114.4217,384.8
114.446,159.5
114.5088,213.7
114.5896,433.8
114.6189,171.1
114.6399,412
114.6452,92.7
114.6525,20
114.659,849.3
114.6952,170.1
114.7363,806.8
114.7541,162.5
114.7689,310.5
114.7999,81.1
114.8408,164.2
114.8504,243.2
114.8871,599.4
114.8926,137584.1
114.9007,226.7
114.906,426.5
114.9073,87.3
114.948,631.5
114.9855,477.6
115.054,26.2
115.0583,562.4
115.0822,264.2
115.0865,1205.8
115.1639,184
115.1794,205.4
115.2056,153.8
115.2655,93.4
115.31,393.8
115.3516,162.2
115.3685,21.1
115.3829,888
115.4342,358.3
115.4579,128.4
115.4622,288.5
115.5299,499.5
115.5322,361.8
115.539,342.1
115.5486,142.1
115.5529,19.9
115.5589,424.6
115.5649,288.4
115.5735,206.2
115.5821,346.9
115.6012,78.8
115.6023,613.3
115.6074,105.3
115.6138,620.9
115.6953,117.4
115.6984,145.1
115.7022,158.3
115.7551,250.1
115.8238,392.2
115.8403,161.4
115.8455,145.4
115.8741,981.4
115.8796,161.2
115.908,19.1
115.9118,164.5
115.9292,689.7
115.9481,21.7
115.9792,478.9
115.9951,156.3
116.0135,332.2
116.0285,125.3
116.0374,219.6
116.0526,396.2
116.0574,284.2
116.0704,6081.5
116.0804,122.7
116.1303,152.5
116.1324,92.6
116.1341,475
116.2207,665.5
116.2287,366.7
116.2341,18
116.2429,377.2
116.2589,403.5
116.2877,125.9
116.2908,76.3
116.3222,546.5
116.3621,534.5
116.3908,131.2
116.4161,17.8
116.4172,16.8
116.4957,137.9
116.5146,107.2
116.5679,383.9
116.6584,125.7
116.7053,606.9
116.7478,221.3
116.8366,848.4
116.8741,184.4
116.8771,22.3
116.8776,17.4
116.8855,156.1
116.8907,16898.5
116.9139,405
116.9327,187.1
116.9632,193.9
116.9711,305.4
116.9836,42.8
116.9858,243.6
117.0006,126.9
117.0259,868.8
117.0312,119.8
117.0668,333.6
117.0698,43.8
117.092,334.8
117.1907,354.2
117.1994,19
117.2493,142.2
117.35,537.3
117.4105,662.9
117.4248,270.9
117.4328,309.5
117.4644,765.7
117.5595,165.9
117.5598,164.2
117.5613,484.9
117.5817,267.4
117.6359,111.7
117.6388,16.5
117.6861,1174.6
117.6955,135.2
117.7198,149
117.7235,248
117.7574,176.3
117.7645,112.7
117.7975,133.5
117.8567,19.3
117.897,18.3
117.9032,152.7
117.9432,18.6
117.9456,27.1
117.9889,154.8
117.9948,28.7
118.0518,243.7
118.0558,840.9
118.0589,125.6
118.0827,595
118.1074,355.7
118.1125,117.7
118.1258,199
118.1481,159
118.1946,300.3
118.2165,293.8
118.2175,208.6
118.245,560.1
118.2476,315.4
118.3394,681.4
118.3562,172.4
118.3828,841.3
118.4416,664.1
118.4744,678.6
118.4849,315.2
118.4991,634.4
118.5027,170.9
118.5256,223.1
118.5492,133.7
118.597,736.7
118.6041,707.2
118.6626,330.1
118.6854,232.1
118.804,223.2
118.8216,163.6
118.833,137.7
118.8418,774.4
118.893,351.3
118.8946,113.1
118.9425,922.7
118.9681,86.8
118.9746,156.9
118.9788,895.6
119.0132,153.9
119.0186,638.1
119.0468,155.6
119.087,439.5
119.0977,435.1
119.146,1097.3
119.1562,864.7
119.1611,743.2
119.1876,465.2
119.2108,174.1
119.2154,142.9
119.2703,152
119.3478,352
119.3537,101.4
119.4087,268.5
119.465,664.4
119.4966,764.4
119.534,166.7
119.54,549.1
119.5428,231.3
119.5763,306.6
119.5789,130
119.6208,312.1
119.6393,500
119.6629,150.5
119.67,315.6
119.6846,109.1
119.6878,96
119.6897,646.5
119.7815,617
119.7852,598.2
119.8006,85
119.8075,119.8
119.9049,152.7
119.9299,17.8
119.9413,601.6
119.95,468.1
119.9524,754.4
119.9828,117.3
119.9965,281.8
120.0241,525.9
120.0806,15021.2
120.088,277.1
120.1187,138.3
120.1371,495.9
120.1924,115.7
120.2363,116.3
120.2901,796.7
120.299,17.1
120.3024,252.7
120.315,280.6
120.3593,355
120.3805,112.3
120.4097,22.5
120.5485,150.5
120.5589,108.7
120.5601,240.7
120.6033,278
120.6076,409
120.6538,117.8
120.6806,675.6
120.6992,749.7
120.7607,175.5
120.7761,207.7
120.8515,122.4
120.9034,257.5
120.946,324.8
120.9661,692.6
120.9766,116.9
120.9806,96.9
120.9929,123.1
120.9977,162.4
121.0069,753.8
121.0283,222.9
121.0395,195.1
121.0636,354.1
121.0761,161.2
121.0868,177.9
121.1086,144.1
121.1405,17.8
121.1718,119.3
121.1807,141.7
121.1884,165.3
121.2139,764.7
121.2299,744.9
121.236,163.7
121.2721,170.1
121.2953,18.4
121.3034,19
121.316,371.7
121.3522,83.9
121.3783,600.8
121.4082,109.3
121.4783,18.2
121.5075,243.9
121.5378,104.9
121.551,708.9
121.5958,160.2
121.6557,137.8
121.6703,141.3
121.6994,166
121.7216,232.2
121.7266,125.3
121.7311,186.6
121.782,98.4
121.7841,114.9
121.7926,192.3
121.8272,159.4
121.8436,496.1
121.8759,18.8
121.8981,117.6
121.9028,264.3
121.9039,277.2
121.9129,314.2
122.0821,204.5
122.1004,19.5
122.1341,116.4
122.141,168.3
122.1423,88.2
122.2034,310
122.3226,249.3
122.3259,553
122.3355,115.1
122.3359,114.3
122.3591,665.8
122.3699,16.5
122.41,226.7
122.4135,187.3
122.43,344.7
122.4379,326.5
122.4505,343.7
122.4826,150.9
122.521,141.8
122.5316,315.9
122.542,203.1
122.6004,250.5
122.6105,20.5
122.7171,127.3
122.8184,114.4
122.8777,140.6
122.88,143.3
122.9244,19994.4
122.9293,27
122.9423,139.4
122.9741,400.5
123.0214,409
123.0421,837.4
123.0766,207.4
123.1148,159.1
123.1167,38.7
123.1354,593.6
123.1495,17.3
123.1579,433.5
123.2059,118.2
123.2225,628.7
123.2265,790.9
123.2907,382.6
123.303,364.5
123.3705,359
123.3792,91.2
123.3802,233.1
123.3862,873.2
123.3935,101.5
123.4062,209.1
123.5075,260.9
123.5257,99.2
123.5497,216.5
123.6063,18.4
123.6293,853
123.634,617.5
123.638,102.3
123.6541,959.2
123.7166,129
123.7294,119.6
123.7456,264.8
123.7645,158.2
123.7992,284
123.814,313.4
123.8681,287.6
123.9054,482.7
123.9214,322
123.9297,88.4
123.9355,131.9
123.9514,19.3
124.0112,154.2
124.012,240.5
124.0369,602.2
124.1136,371
124.135,185.8
124.1416,98.8
124.2529,17
124.3228,136.5
124.3531,15.9
124.3655,105.3
124.3843,427
124.386,646.7
124.3887,461.7
124.3936,344.8
124.3951,659.5
124.4212,18.7
124.4319,480.7
124.4723,396.1
124.5341,17.6
124.5989,338.9
124.6509,161
124.67,102.7
124.6818,153.6
124.6855,94.3
124.6982,138.5
124.7068,467.7
124.7153,653.8
124.7217,96
124.7284,98.5
124.7663,219.3
124.7742,894.2
124.7769,19.8
124.8162,256.8
124.8355,476
124.9225,482.5
124.9308,335
124.965,173.6
124.9794,125.6
124.9853,827.8
124.995,177.8
124.9997,6671
125.0054,1565.5
125.0388,187.4
125.0596,53.5
125.1887,713.6
125.2201,276.5
125.2321,98.2
125.2389,202.7
125.2535,104.7
125.302,98.1
125.3184,366.8
125.3196,432.1
125.3269,87.3
125.4303,338.8
125.4883,167.8
125.4966,883.2
125.5031,375.3
125.5206,315.6
125.5451,130.1
125.5494,162.1
125.5684,612.1
125.5914,610.2
125.6243,89.8
125.6495,18.9
125.6828,384.5
125.7106,121.7
125.8901,90.6
125.9061,182.9
125.9842,182
125.9999,97.5
126.0762,106.6
126.0847,534.9
126.0869,20.2
126.1208,349.2
126.1257,652.3
126.195,898.9
126.2759,377.3
126.2771,572.5
126.3096,928.8
126.3344,198.2
126.4397,83.7
126.469,20.1
126.4878,101
126.4932,471.9
126.6034,88.9
126.6176,728.9
126.6384,156.5
126.648,18.5
126.6529,198.1
126.6781,20.7
126.7053,613
126.7145,270.3
126.78,17.3
126.8231,119.7
126.8347,789.5
126.8575,312.1
126.8865,393.1
126.9251,85.2
126.9546,198.3
127.0397,459.6
127.0476,256.5
127.1317,112.8
127.2207,269.5
127.241,123.7
127.2512,101.4
127.2798,104.8
127.2844,369
127.3116,187.9
127.3156,343.6
127.3433,473.1
127.3594,232.7
127.3708,337.7
127.374,565.4
127.3834,428.1
127.3856,709.8
127.3935,132.6
127.4203,740.3
127.4593,131.3
127.4853,158.1
127.4892,390.9
127.5165,473.6
127.5414,105.1
127.555,805.1
127.581,177.3
127.6047,160.1
127.6779,193
127.6854,233.6
127.6905,510.7
127.7084,753.7
127.7129,571.2
127.7246,111.6
127.7494,780.4
127.8203,160.1
127.831,136
127.8374,124.8
127.9466,199.1
128.005,594
128.0156,42.5
128.0791,17.1
128.119,364.6
128.1413,624.2
128.2999,266.7
128.3143,162.4
128.3461,378.2
128.4553,111.8
128.4925,91.3
128.508,91
128.5336,18.2
128.5618,17.4
128.5709,263.3
128.693,176.6
128.7104,131.7
128.7871,205.9
128.8265,1116.3
128.8603,367.8
128.8989,659.4
128.9117,213.3
128.9637,421.4
128.9855,99.6
128.9874,126.1
129.0285,478.3
129.0563,86.5
129.0718,118
129.0965,604.1
129.0999,155.2
129.1131,565.5
129.1141,188.9
129.1363,96.8
129.1499,814.3
129.1848,497.2
129.1904,215.2
129.2121,157.8
129.2278,170.1
129.2608,654.1
129.2997,599.4
129.3376,456.9
129.3675,152.4
129.3697,358.8
129.4394,147.7
129.4447,651.9
129.4892,172.4
129.5209,19.3
129.5383,135.8
129.5738,98.8
129.5803,17.1
129.6387,724.6
129.6491,20.7
129.655,197.6
129.6575,566.6
129.6638,255.6
129.7521,581.2
129.754,18.6
129.8024,118.2
129.8321,394.2
129.8621,457.1
129.9585,203
129.9948,94.5
130.0421,92.1
130.0497,10353.6
130.1122,554.9
130.2048,99.6
130.2197,106.8
130.3157,22.9
130.3336,308.8
130.3378,150.4
130.3569,104
130.4013,337.9
130.4138,129.8
130.4679,154.2
130.4869,19.7
130.5496,170.9
130.5947,693
130.5987,310
130.729,106.7
130.7473,719.4
130.7825,109
130.7956,739.1
130.802,760.9
130.836,320.5
130.8609,102
130.8948,286.6
130.9048,126.2
130.9279,127.2
130.9787,137.6
130.988,817.4
131.0001,121.4
131.0015,29.3
131.0318,187.8
131.0358,750.2
131.0668,721.3
131.1641,436.7
131.1836,347
131.1985,309.9
131.2038,682.4
131.2166,534.1
131.2234,359.7
131.2368,131.3
131.2439,20.5
131.2802,330.4
131.3237,423
131.3805,192.4
131.3882,235.6
131.4166,194.4
131.4579,140.3
131.4839,136.6
131.4906,122.8
131.5604,171.1
131.5637,211.9
131.6414,445
131.6656,666.8
131.6752,19.6
131.7087,413.9
131.7167,323.1
131.821,617
131.8996,243.4
131.9059,198.9
131.9422,564.2
131.9637,713
131.9726,933
132.0031,35784.4
132.0049,478.3
132.0091,184.9
132.0654,80310.1
132.0766,10410.5
132.0811,18.6
132.1212,162.9
132.1498,155.6
132.203,132.5
132.2065,747.6
132.2544,702.2
132.2629,353
132.2698,134.3
132.3061,1099.2
132.3501,618.6
132.4175,519.5
132.4571,163.4
132.5156,114.7
132.5207,605.7
132.5807,119.4
132.6237,18.8
132.6407,179.2
132.6467,19.1
132.709,133.9
132.7397,335.3
132.753,230.4
132.7572,637.2
132.9004,103.9
132.9405,336.9
132.9581,927.3
132.9641,282.1
132.9693,29.3
132.987,1312.3
132.9911,143.4
133.0007,97.4
133.0688,1351.1
133.0765,713.3
133.081,462.1
133.097,39698.4
133.1088,968.6
133.1411,535.5
133.1559,121
133.1856,117.3
133.2122,98.9
133.2582,342.6
133.2932,697.8
133.2961,98.7
133.3005,149.4
133.3217,164
133.3472,933.4
133.37,201
133.3872,440
133.4215,1202
133.4352,161.3
133.4961,393.5
133.5339,99.7
133.5866,747.5
133.5898,610.2
133.633,798.3
133.6456,235.6
133.663,152.4
133.6867,78.7
133.717,230.7
133.7483,154.5
133.7679,206
133.7933,163.8
133.8027,110.6
133.8864,263.4
133.9535,117.2
133.9655,18.7
134.0071,115.5
134.0188,8220.8
134.0412,726.5
134.0518,136.3
134.0923,300.5
134.1139,306.4
134.1281,569.1
134.2056,154.8
134.226,119.4
134.2273,843.4
134.2374,249.4
134.2381,238.6
134.2494,193.9
134.2605,17.6
134.271,18.1
134.2949,182.8
134.3295,588.8
134.379,177.8
134.3952,163.3
134.4291,101.5
134.4372,194.7
134.4472,126.7
134.4655,111.3
134.4945,342.6
134.5251,228.6
134.5397,523.1
134.5492,998.1
134.5861,685.8
134.5888,83.3
134.6017,150.9
134.6252,103
134.6526,167.5
134.6533,194.3
134.6537,166.4
134.716,722.7
134.7195,84.4
134.7249,105.9
134.7255,101.8
134.7585,191.7
134.8171,290.7
134.8603,782.3
134.9003,525.9
134.9097,123.5
134.925,259.9
134.9739,32.5
134.9891,139.7
134.9964,47.5
135.0027,28038.1
135.033,522.9
135.1168,28
135.1389,695.1
135.1766,313.6
135.2332,671.8
135.2901,459.8
135.3029,667.5
135.3126,177.3
135.3606,104.5
135.3653,393.6
135.3672,382.1
135.3907,19
135.4266,999.7
135.4306,685.9
135.4426,577.5
135.4802,100
135.4859,175.4
135.6143,251.3
135.6254,186.4
135.6286,263.5
135.688,684.5
135.6993,399
135.7577,660.6
135.7905,157.6
135.8227,366.9
135.8246,197.2
135.8398,641.8
135.8927,214.2
135.9204,677.7
135.977,899.7
136.0143,83.1
136.048,7758.1
136.0615,18.9
136.0756,11017
136.1301,20
136.1986,120
136.2055,120.5
136.2636,104.6
136.2688,94.4
136.3614,211.2
136.3667,403.9
136.5594,15.6
136.6586,100.9
136.6819,113.9
136.6855,514.9
136.7266,18.5
136.7694,135.5
136.7998,204
136.8181,141.9
136.8576,111.5
136.9242,185.6
136.9396,292.7
136.9531,142.6
136.9895,69.1
137.0756,264.6
137.0786,179.6
137.081,160.7
137.0901,91.5
137.1065,606.3
137.1197,132
137.1267,17
137.1641,399.4
137.1988,197.5
137.2127,426
137.2286,241.3
137.2544,643.6
137.2559,941.5
137.2672,1093.2
137.3775,96
137.3832,229.2
137.4037,339
137.4804,90.7
137.5167,154.7
137.5462,83.7
137.5727,678
137.6462,143.4
137.6519,729.2
137.6636,165.2
137.6752,117
137.6758,114.8
137.7264,689.9
137.8232,17.5
137.8854,397.8
137.9341,468.7
137.9683,307.5
138.0088,19.5
138.0142,572.6
138.0525,7664.9
138.066,94.2
138.1471,19.8
138.1511,141.8
138.2018,141.6
138.2044,553.7
138.2178,883.5
138.2307,17.4
138.2689,236.7
138.3152,138.8
138.3296,116.7
138.4127,191.3
138.4179,225.8
138.4468,643.9
138.5216,164.1
138.5258,113.6
138.5619,111.7
138.6151,103.6
138.7271,189
138.7354,845.5
138.7848,131.2
138.9064,512.7
138.9584,455.8
138.9659,135.9
139.0083,19.7
139.0112,335.7
139.0605,18.2
139.0625,79.2
139.1153,415.6
139.2027,554.7
139.2158,236.8
139.2274,820.6
139.2333,506.1
139.2521,177.2
139.2648,518.7
139.2854,517.6
139.2953,86.7
139.3427,15.9
139.3817,176.6
139.3937,240.1
139.4308,251.7
139.4329,18.1
139.4426,438.4
139.5224,90.3
139.5247,168.3
139.5707,171.8
139.6069,118.4
139.6426,774.1
139.66,146.8
139.7118,422.8
139.7163,397.3
139.8769,129.2
139.8952,498.3
139.9385,260.5
139.9431,96.8
139.9635,83
139.9676,450.7
140.0164,3790.6
140.0417,158.1
140.0477,88
140.0633,146.3
140.068,1840.4
140.0977,511.9
140.1109,384.5
140.1186,945.1
140.1255,245.6
140.1291,182.2
140.1775,577.8
140.1912,129
140.2168,168.1
140.2335,404.9
140.2486,139.9
140.3168,184.8
140.3385,361.7
140.3549,154
140.413,20.6
140.4333,92
140.5034,633.5
140.5305,676.7
140.5394,559.9
140.5425,737.8
140.5588,135
140.596,180.1
140.751,234.4
140.8309,363.2
140.9041,878.2
140.9246,17.7
140.9504,99.4
140.9524,20.4
140.9669,132.4
140.9985,309.8
141.0004,18942
141.0197,156.6
141.1058,367.8
141.1231,79.2
141.1406,17.9
141.1412,25.9
141.1417,20.6
141.1638,136.2
141.1673,132.1
141.2423,286.6
141.2504,327
141.3127,755.2
141.3304,530.2
141.3345,157.2
141.3993,78.9
141.4091,126.2
141.4923,712.9
141.5387,186.6
141.5423,691.9
141.5669,278.8
141.6156,18.4
141.636,158.4
141.6451,161.6
141.6639,180
141.6664,124.8
141.7134,893.8
141.7259,366.2
141.7417,135.7
141.7532,150.2
141.7591,673.9
141.8186,123.8
141.8219,854.4
141.8832,777.3
141.8898,165
141.926,85.4
141.9416,373
141.9949,196.5
142.0035,716
142.0121,77
142.0146,17.2
142.0361,18.4
142.055,109.7
142.0935,857.5
142.1562,148
142.1907,88.8
142.2127,513.3
142.2226,171.9
142.2328,140.9
142.2376,128.2
142.2486,146.3
142.2844,86.7
142.2944,86.9
142.388,479.4
142.4157,319
142.4204,277.3
142.4274,418.8
142.5193,368.8
142.5998,495.7
142.6477,131.9
142.6526,757.7
142.6964,204.5
142.729,111.3
142.735,420.1
142.899,421.9
142.9391,104.2
142.9962,213.2
143.0189,834.1
143.0579,735.9
143.068,86
143.0815,79.6
143.1011,237
143.2032,166.6
143.2523,883.6
143.2646,449
143.3687,326.9
143.3719,583.5
143.3848,144.9
143.4047,115.7
143.4191,644.2
143.4373,524.2
143.487,128.5
143.5134,432.9
143.5319,16.9
143.5354,446
143.545,529.6
143.6372,106.5
143.7249,454.9
143.8057,509.3
143.8296,818.9
143.8674,287
143.8833,942.6
143.9589,187.2
143.9778,179.2
143.9965,144
144.0087,448.9
144.0105,1287.3
144.0198,508.4
144.0863,104.5
144.1079,261.2
144.1325,123.9
144.1734,340.2
144.2366,126.2
144.2974,387.2
144.4757,19.5
144.5742,260.7
144.5812,133.8
144.5933,157.8
144.655,493.4
144.7091,108
144.7276,166.5
144.7418,157.9
144.7651,126.4
144.8295,117.1
144.8586,89.8
144.8651,152.4
144.9808,334.9
144.9945,239.5
145.0349,142.3
145.0441,534.6
145.1303,105
145.1371,491.4
145.218,959.8
145.2307,82
145.3049,431.1
145.3272,575
145.3563,578.9
145.3782,143.2
145.3822,115
145.4649,19.1
145.5102,145.7
145.5151,143.8
145.5337,788.8
145.5543,125.7
145.565,314.9
145.5862,395
145.6121,20.4
145.6195,777.9
145.6282,20.2
145.6636,1065.8
145.7122,855.6
145.7167,196.9
145.7714,547.1
145.7763,267
145.8294,151.4
145.8416,762.7
145.8718,141.4
145.8853,224
145.8955,472.8
145.9112,16.7
145.9527,20.3
145.9663,20.3
145.9797,285
145.9821,24.7
145.9866,146
146.0124,3621.4
146.0156,193.1
146.0188,17639.6
146.0262,128.1
146.0588,204.8
146.0967,125.2
146.1765,159.7
146.2581,303.4
146.2847,993.9
146.319,94.4
146.3256,301.9
146.3551,465.6
146.416,215.8
146.4334,19.2
146.4451,139.3
146.4783,663.8
146.4929,114.5
146.5282,950.2
146.5335,582.7
146.5552,286.9
146.5615,247.2
146.5682,147
146.5938,17.2
146.632,305.8
146.682,117.8
146.738,352.7
146.7423,289.6
146.788,388.5
146.8535,376.6
146.8652,197.5
146.9251,85.2
146.9343,114
146.9648,20
146.9742,43.6
146.9817,106984.3
146.9918,112.4
147.0427,377.6
147.0471,113.4
147.0763,73000.2
147.1127,41611.3
147.1171,419.4
147.1464,182.3
147.1469,223.5
147.1479,155.7
147.1509,152.1
147.1785,874.7
147.2021,636.4
147.2626,334
147.2836,543.3
147.2938,168.9
147.3224,329.9
147.3771,86
147.425,129.8
147.4614,905.9
147.4803,438.2
147.4853,992.3
147.5439,18.2
147.5618,149
147.6252,148.5
147.6685,377.2
147.6952,437.8
147.7417,315.2
147.7446,775.9
147.7575,144.4
147.8298,494.3
147.8633,157.5
147.864,145.5
147.8648,140.3
147.8899,351.3
147.9273,901.2
147.9347,20.4
147.9771,400.5
147.9975,23
148.07,118.1
148.0798,592.7
148.0806,564.2
148.12,265.3
148.1566,276.2
148.1694,229.4
148.1712,17.3
148.2019,115.1
148.2079,606.1
148.2274,184.1
148.2611,598.1
148.2655,156.8
148.319,483.7
148.348,135.9
148.398,16.6
148.4222,108.2
148.4335,119.8
148.4434,650.2
148.4751,117.7
148.5209,362.7
148.532,2148.4
148.5472,498.5
148.5722,665.1
148.5808,554
148.5879,516.5
148.7993,596.1
148.8054,21.3
148.8139,173.4
148.8427,18.7
148.9456,1079.8
148.961,1172.4
148.9643,738.1
148.9886,140.5
149.0109,150.5
149.0185,1502.8
149.0233,4302.6
149.0448,71
149.0596,578.6
149.0644,452.9
149.1243,304.7
149.1325,611
149.2148,104.1
149.2268,144.7
149.2299,120.7
149.2529,20.7
149.2939,464.9
149.3573,114
149.4466,838.7
149.4717,128.9
149.4772,316.8
149.5927,139.7
149.6822,357.3
149.7001,273.5
149.7181,333.5
149.8195,273.2
149.8468,103.9
149.9551,149.7
149.9759,24.1
149.9793,566.4
149.9872,43.5
149.9927,5727.8
150.0136,1235.2
150.0266,85.9
150.0542,636.1
150.1039,123.2
150.1118,18.5
150.1531,20.9
150.1904,216.5
150.204,15.9
150.2047,15.3
150.2106,409.5
150.2163,342.5
150.2481,21.3
150.2534,96.2
150.2578,140.6
150.3296,199.1
150.3469,148.8
150.3866,133.4
150.5522,838.9
150.5616,119.9
150.629,216.3
150.6404,99.4
150.6732,20.5
150.6844,291.9
150.7135,172
150.7152,147.2
150.7218,830.4
150.7319,218.5
150.829,297.5
150.8372,80.2
150.8561,383
150.8843,261.4
150.9502,571.8
150.9687,80.7
150.9767,29200
150.984,3889.5
151.0377,213.2
151.0429,99.3
151.055,272.8
151.1374,269.1
151.1661,21.5
151.1702,198.7
151.1854,208.5
151.2477,132.2
151.3311,212.1
151.3719,546.6
151.3858,528
151.3904,121.4
151.4941,107.7
151.6615,427.8
151.6659,162.9
151.6769,179.9
151.748,299.9
151.7632,130.8
151.7762,156.4
151.8264,99.3
151.8572,139.3
151.9024,232.9
151.9079,194.2
151.9122,209.2
151.9221,168.7
151.9699,703.7
151.9801,421.5
151.9846,24.1
151.9873,111.9
152.0112,108.8
152.022,10211.8
152.0255,207.9
152.0317,1400.1
152.0468,847.5
152.1097,101.3
152.1281,780.1
152.1806,826.1
152.1996,107.3
152.2162,18.9
152.2639,19.7
152.3337,127.3
152.4098,360.7
152.4609,994.9
152.5204,545.2
152.5371,430.6
152.542,409.4
152.6331,353.7
152.6488,190
152.6959,124.3
152.7146,123.9
152.7193,19
152.7247,187.6
152.7272,194.7
152.7504,135.3
152.791,17.7
152.796,251.2
152.797,233.2
152.8216,93
152.858,855.6
152.9299,22
152.9329,208.5
152.975,1589.4
152.9823,674.4
152.9841,30.6
152.9897,20.7
153.0107,192.2
153.057,921.5
153.0646,402.6
153.0741,163
153.1516,200.1
153.2046,742.9
153.3007,169.3
153.3253,142.2
153.3285,323.4
153.4242,19.6
153.4397,183.7
153.4796,324.5
153.4936,369.6
153.5629,18.8
153.5775,262.8
153.6297,126.6
153.6413,515.5
153.6847,247.1
153.7488,576.9
153.8158,86.8
153.9171,97.3
153.9374,514.3
153.9422,105.9
154.0111,276.7
154.0265,1052.6
154.0586,6971.1
154.1404,264.5
154.1624,100.1
154.21,155.7
154.2735,259.6
154.3233,190.9
154.3365,97.4
154.3844,106.8
154.4468,245.1
154.4491,371
154.4498,424.4
154.451,271.9
154.4522,105.8
154.4682,276.8
154.4834,90.7
154.5044,123.6
154.5209,524.8
154.5372,216.2
154.5656,410.9
154.6537,175.1
154.7088,111.6
154.8805,441.2
154.9076,66.9
154.9217,672.2
154.9417,17.9
154.9691,583.2
154.9843,21.4
155.0427,1018
155.0539,3181.1
155.0811,21
155.101,117.4
155.103,99.5
155.2762,313.5
155.2792,185.1
155.3029,216.6
155.3554,119.5
155.3746,123
155.4225,235
155.4675,17.2
155.5001,95.5
155.6033,115.9
155.6461,539
155.6563,709.4
155.6951,895.7
155.7727,806.1
155.8084,20.4
155.832,101.9
155.867,114.3
155.9032,95.2
155.9404,155.6
155.9493,112.4
155.9812,231.3
156.0106,73.3
156.0132,147.4
156.0421,2438.1
156.0572,20.6
156.0767,85297.4
156.0796,17.6
156.092,767
156.1526,167.1
156.2574,18.1
156.2738,358.5
156.3102,141.4
156.3703,135.8
156.3796,539.2
156.396,121.3
156.4049,746.8
156.421,99.3
156.4227,352.6
156.4982,209.8
156.5285,17.2
156.5429,123.1
156.5495,687
156.579,123.9
156.584,17.3
156.6746,18.4
156.7271,77.4
156.7622,798.8
156.7862,239.2
156.8459,18.5
156.9054,109.5
156.9071,516.2
156.9264,157
156.9344,917.1
156.9744,19.9
156.99,706.7
157.0058,114.4
157.0225,296.5
157.0645,124.5
157.0802,693.3
157.0972,26.9
157.1366,142.1
157.1438,508.4
157.1658,579.5
157.2024,445.3
157.2584,269.1
157.3059,527.1
157.3193,155.6
157.3922,106.1
157.3936,328.5
157.407,548.1
157.4108,242
157.4571,104.4
157.5216,753.1
157.5989,111.8
157.6345,492.9
157.6705,833.7
157.6741,830.6
157.782,378.3
157.8152,480.1
157.951,342
158.0194,264.8
158.027,3702.8
158.0823,83.9
158.0862,169.4
158.0955,243.8
158.0993,18.8
158.1575,801.6
158.1679,217.7
158.1701,507.8
158.1897,334.6
158.2284,281.4
158.2891,94.6
158.3224,266.2
158.3984,277.5
158.4277,89.1
158.4796,646.2
158.5372,19
158.5411,19.4
158.5596,104.5
158.5885,97.1
158.5973,375.7
158.6569,513.9
158.8122,152.6
158.964,4470.1
158.9964,2285.6
159.0052,906.9
159.0098,28.8
159.0303,76
159.076,1358.6
159.0892,113
159.1045,712
159.1298,329.9
159.1433,248.6
159.2147,97.7
159.2368,409.3
159.2454,815
159.3888,122.7
159.4093,507.6
159.4121,126.5
159.4566,655.1
159.5138,403.9
159.5714,176.4
159.5824,111
159.5867,180
159.589,132.9
159.7061,16.3
159.7374,93.7
159.7614,327.5
159.7677,18.9
159.7997,79
159.8382,163.4
159.8409,103.2
159.844,730.3
159.8782,139.6
159.9146,501.1
159.9642,747.9
159.9719,644.8
159.9738,135.7
159.978,144.3
160.0227,65.5
160.0345,10611.3
160.0394,16.7
160.0604,76560.2
160.0659,834.6
160.0836,179.8
160.0968,480
160.0984,406.2
160.1136,152.7
160.1354,182.9
160.1455,234.3
160.15,494.6
160.2935,176.9
160.3555,96.7
160.4363,729
160.4462,346.8
160.4567,348.4
160.4835,139.1
160.5411,149.6
160.5574,556.3
160.6063,747.3
160.6214,361.9
160.6521,127.3
160.7292,129.5
160.8014,327.8
160.8568,119.9
160.8821,183.8
160.9141,623.7
160.9553,137.3
160.982,175.6
160.9923,101.9
161.0023,654.2
161.0638,2300.7
161.096,28.7
161.1185,120.4
161.1283,2569.2
161.1304,98.8
161.1327,95.9
161.1699,123.6
161.1741,77.6
161.1976,99.5
161.2027,462.1
161.2421,223.8
161.2573,131.6
161.2864,129.8
161.3055,149.3
161.3948,155.5
161.3984,17.7
161.4189,77.8
161.4379,791.6
161.476,207.9
161.4899,259.9
161.6494,127.7
161.6988,231.6
161.7201,207.7
161.7327,235.4
161.8415,101.7
161.9815,171.2
161.9962,283.1
162.0276,365.8
162.0398,747
162.0501,11959.5
162.0726,183.3
162.0808,245.6
162.1123,97.1
162.1386,104.9
162.3958,628.8
162.402,549.3
162.4971,621.7
162.7015,206.4
162.7176,21.6
162.7399,366.1
162.767,18.7
162.8241,191.3
162.8454,138
162.8775,168.6
162.8983,98.3
162.9006,120.5
162.9339,149.5
162.9557,4138.6
162.9754,90.8
163.0153,1905.2
163.0374,123
163.0537,421.1
163.0569,174.4
163.0722,178.6
163.1033,110
163.1484,775.7
163.1761,401
163.2197,116.9
163.2411,147.5
163.2483,693.8
163.2697,571.3
163.2976,701.3
163.4542,19.2
163.4953,701.4
163.4988,105.1
163.5033,93.5
163.523,799.8
163.5838,455
163.5905,18.6
163.6396,246.8
163.6519,213.4
163.6555,155.7
163.6584,254.4
163.665,240.2
163.6686,797.4
163.681,716.9
163.7301,564.7
163.799,242
163.9077,613.9
163.9415,443.9
163.9784,285.2
163.984,106.9
163.9955,617.2
163.9992,25.5
164.0197,145.8
164.0294,11510.2
164.0372,691.2
164.1324,377.1
164.1908,116.4
164.2053,469.7
164.2134,139.1
164.2587,784.2
164.2974,485.8
164.3485,18.2
164.428,119.5
164.4496,158.9
164.5197,121.2
164.5819,802.8
164.6134,637.1
164.631,117.2
164.6334,162.3
164.641,214.4
164.7116,159.6
164.7859,157.2
164.8058,135.6
164.8239,77.6
164.8492,21.1
164.8629,20.8
164.9205,3251.6
164.93,14570.6
164.9351,1198.9
164.9846,56.1
164.9924,1209.2
164.9997,463
165.0914,111.7
165.1229,526.5
165.1551,141.8
165.156,136.9
165.1755,115.4
165.2506,125.7
165.3283,395.5
165.3358,346.7
165.3471,236.9
165.3998,795.8
165.4473,107.4
165.4963,818.5
165.5069,100.4
165.5338,359.9
165.6451,107.4
165.6605,111.1
165.7231,908.2
165.7377,122.1
165.7489,16.6
165.772,187.7
165.9459,148.7
165.9667,1878.1
165.9789,909.8
165.9876,3663.8
165.995,1591.9
166.0101,848
166.0292,20.6
166.0838,1749.9
166.2251,85.1
166.2746,18.2
166.3089,150.8
166.3232,273.2
166.3675,368.8
166.4027,541.6
166.4368,445.8
166.5169,643.7
166.5759,142.4
166.5852,165.5
166.6213,17.9
166.6778,17
166.731,147
166.7951,159.8
166.8479,17.8
166.8765,15.8
166.8924,662.6
166.8953,134.3
166.9104,153.4
166.9508,16078.7
166.9782,234.4
166.9983,58.5
167.0044,389
167.0216,6110.3
167.1161,651.7
167.1505,601.1
167.1729,171.2
167.2333,386.4
167.2472,250.6
167.2675,99
167.2966,227
167.355,696.5
167.4115,90.5
167.4384,905.1
167.4611,19.9
167.4816,353.6
167.4862,1054.2
167.5076,254.6
167.5683,207
167.5851,405.8
167.692,676.4
167.7478,138
167.7768,173.9
167.9014,517.6
167.9395,747.4
167.9496,307
167.9689,760.2
167.973,477.9
167.9945,2567.3
168.0057,1749.3
168.0145,558.8
168.0621,174.6
168.0726,887.3
168.0833,196.5
168.1152,132.4
168.1177,571.7
168.1447,103.8
168.1592,82.9
168.204,145.1
168.2947,458.8
168.322,155.3
168.3253,18.9
168.3864,19.5
168.4198,313.1
168.4291,718.6
168.4728,141.8
168.6173,420.9
168.652,176.8
168.709,482.2
168.7541,324.1
168.7816,109
168.822,816.8
168.8304,252
168.8598,536.7
168.9078,137.9
168.925,36.9
168.9374,83.2
168.9487,645.4
168.9576,102.7
169.0061,633.3
169.0584,62129.2
169.0649,1489.5
169.0947,3430.1
169.1149,129
169.2466,116.8
169.3155,100.5
169.3357,228.1
169.3497,164.1
169.3615,179.1
169.3836,134.1
169.4147,370.2
169.4686,18.4
169.5803,18.3
169.6082,99.8
169.6899,274
169.7139,184.9
169.7457,138.9
169.793,349.8
169.8293,17.8
169.9009,19.6
169.9247,19.9
169.991,25.7
170.027,19.3
170.0326,14572
170.0618,789
170.0924,48497.9
170.1425,252.5
170.1628,325.2
170.1795,171.5
170.2191,734.2
170.2929,110.7
170.3206,110.3
170.3663,115.9
170.3881,153.9
170.3886,159
170.4148,119.1
170.4346,765.7
170.449,925.8
170.4723,434
170.5044,295.6
170.584,553.1
170.6572,341.5
170.6861,303.7
170.6881,214.4
170.6997,174.5
170.7155,480.4
170.7728,95.1
170.7756,23.1
170.7903,91.5
170.8333,276.3
170.8544,3375.7
170.8989,756.3
170.9021,126.4
170.9132,100.1
170.9394,19.2
170.9694,102.2
170.98,148.1
170.9889,545.1
170.9982,22.1
171.0279,102.5
171.0315,18
171.0453,165.7
171.0529,3527.3
171.1227,638.5
171.2069,109.9
171.2095,165.9
171.2987,17.4
171.3366,335.8
171.4331,95.1
171.4674,188.4
171.5347,747.2
171.5525,143.4
171.6159,681.8
171.6507,104.9
171.7621,185.9
171.7705,192
171.7828,806.3
171.9344,179.9
171.9672,624.7
171.9802,141.5
172.0281,367.3
172.0778,18.9
172.1057,436.3
172.1088,900.9
172.1326,465.9
172.183,745.4
172.2178,468
172.2345,117.3
172.3118,201.9
172.3587,707.1
172.3663,329.2
172.4835,208.8
172.4912,108.1
172.5768,535.8
172.6255,137.8
172.6825,144.4
172.7807,17.1
172.8108,84.3
172.8513,1919.6
172.8686,493.7
172.8873,529.5
172.9396,265.3
172.9619,197.1
172.9768,122.6
172.9833,154.4
172.9925,154.8
173.0267,294.6
173.0594,454.4
173.0822,660.7
173.1557,331.5
173.159,199
173.1643,17.5
173.2642,359.8
173.2741,78.3
173.3053,125.2
173.3204,84.1
173.4091,92.7
173.4189,424.8
173.5448,272.4
173.5633,198.3
173.6265,134.1
173.7358,491.6
173.7393,1308.5
173.745,153.8
173.8699,20.2
173.9069,167.1
173.9234,387.8
173.965,889.4
174.0005,69.4
174.0053,18.4
174.0138,429.4
174.0526,2235.9
174.1734,120.4
174.213,841.8
174.2626,636.5
174.3249,189.5
174.4684,708.6
174.471,85.1
174.4788,268.9
174.5118,105.3
174.5228,753.8
174.5344,173.9
174.5369,122.3
174.7189,244.1
174.8173,838.2
174.8361,279.7
174.8961,296.7
174.9001,117.2
174.9255,18.1
174.938,3667.5
174.9442,369.6
174.9579,106.7
174.9709,121.6
175.0205,46.8
175.0341,4013
175.0454,3828.4
175.0529,119.9
175.119,173872.6
175.1276,295.9
175.1354,328.8
175.1967,726.2
175.2014,369.9
175.2561,18.7
175.2609,480.6
175.273,113.1
175.3131,546.4
175.3176,280.7
175.322,702.2
175.3306,136.2
175.3407,119.5
175.4245,173.3
175.4275,134.5
175.4925,903.5
175.5243,160.6
175.5404,89.1
175.5537,246.4
175.6774,364.3
175.7184,707.9
175.9186,404.6
175.9501,79.6
176.0005,113.6
176.0084,6873.1
176.0164,77.9
176.0223,799.2
176.0407,379.3
176.0658,17940.7
176.103,3056.5
176.1222,5143.9
176.1599,390
176.2487,581
176.314,723.1
176.3411,462.5
176.3433,119.4
176.3745,20.2
176.39,532
176.4185,113.8
176.4786,575.8
176.5459,17
176.5543,649.4
176.6696,390.9
176.7009,104.9
176.7959,96.9
176.8565,522.7
176.8933,20.2
176.9129,211.3
176.9258,153.8
176.9325,25.3
176.9922,472.6
177.0061,188.7
177.0246,1713.6
177.0426,295.4
177.061,7130.3
177.0931,116.8
177.1322,308.3
177.3272,343.1
177.3964,149.4
177.4279,20.5
177.5194,343.5
177.5418,132.5
177.5773,19.5
177.679,92.6
177.7385,152.2
177.7584,732.2
177.7982,141.8
177.8624,120.1
177.9405,95.7
177.949,493.4
177.9577,522.6
177.9622,846.7
177.9712,149.4
177.9745,277.4
177.9892,180.9
177.9948,27.8
178.0087,10910
178.0162,20.2
178.0241,10925.7
178.0587,7975.7
178.114,89.1
178.1523,378
178.2196,438.7
178.2322,760.6
178.2817,113.4
178.3374,739
178.4274,133.2
178.5069,389.5
178.6152,174.9
178.6203,242.2
178.6567,124.8
178.6719,18.3
178.7464,459.9
178.7723,395.2
178.802,156.7
178.8941,653.5
178.9058,837.8
178.922,53.6
178.9419,363.8
178.9641,203.7
178.9697,211.4
179.0028,73
179.0509,18.7
179.0633,593.3
179.1803,685.5
179.2355,491.4
179.2405,155.2
179.2569,368.9
179.3117,436.2
179.3236,108
179.507,468.6
179.5219,897.7
179.5519,165.4
179.5772,175.1
179.6416,151.3
179.6945,121.9
179.7099,470.9
179.7511,155.4
179.8426,85.7
179.8672,117.2
179.897,172.9
179.913,369.9
179.9269,352.3
180.0033,11583.8
180.0105,117.2
180.0619,333.5
180.084,26.6
180.2093,176.6
180.258,730.4
180.2818,518.1
180.3226,151.1
180.3394,20.4
180.4541,264.2
180.4644,279
180.5042,96.4
180.5952,754.1
180.628,104.7
180.6673,596.1
180.6944,583.8
180.7433,856
180.7736,124.5
180.7874,520.4
180.8013,331.8
180.8844,211.2
180.8881,631.7
180.8944,2790.2
180.8997,150.2
180.904,9448.8
180.9571,1021.1
180.9801,122.6
180.9974,717.2
181.0159,31.3
181.0193,17.3
181.0291,238.9
181.0648,5796.8
181.0847,934.3
181.1521,264.6
181.1867,131.6
181.2517,665.8
181.3275,270.6
181.3705,209.6
181.3839,79.2
181.3978,502
181.4278,798.4
181.4623,237.7
181.5701,173.8
181.6568,322.1
181.6787,130.8
181.7714,96
181.8836,92
181.9618,713.8
181.9728,467.1
182.0075,18.1
182.0095,97.4
182.0425,36568.1
182.0466,375.1
182.0578,478.9
182.0747,21.4
182.0809,548.1
182.1599,643.5
182.2422,18.6
182.3532,20.8
182.3648,235.2
182.3686,269.5
182.4195,113.6
182.4364,835.5
182.6413,171
182.7001,220.6
182.7044,20.5
182.7462,799.5
182.7862,792
182.8536,170.2
182.8623,101.3
182.8779,418.8
182.8831,541.8
182.9023,43.7
182.9807,139.1
182.9897,24.2
183.0191,16.6
183.0338,166
183.0445,1085.7
183.0623,139.3
183.1532,138.6
183.1687,285
183.2592,724.1
183.269,119.2
183.2956,722.4
183.3193,125.8
183.5296,196.1
183.5678,638.1
183.6251,346.9
183.6413,304.9
183.7936,600.6
183.8055,730.5
183.8435,240.8
183.8761,517.1
183.9251,316.2
183.9488,293.3
183.9574,517.6
183.9648,1380.8
183.9801,133.3
184.0019,945.2
184.0085,18.4
184.0193,90.4
184.0371,714.9
184.0471,138.6
184.0566,469.7
184.0646,267.9
184.0734,4842725.5
184.081,125.8
184.1097,561.7
184.182,2186.9
184.2029,131.2
184.251,17.2
184.2553,301.4
184.2747,574.2
184.2878,18
184.5242,809.5
184.5327,289.6
184.5411,694
184.5503,591.6
184.6397,878
184.7559,148.2
184.7582,17.8
184.9296,60.5
185.0095,19.6
185.0323,91324.4
185.0517,77.4
185.0703,11544.1
185.0767,226019.8
185.091,381.7
185.1292,187.8
185.1657,495.3
185.2268,490.8
185.2327,316.2
185.2727,194
185.43,558
185.4729,611
185.5967,666.6
185.6054,141.7
185.6806,912.4
185.7334,823.7
185.7816,496
185.7928,18.7
186.0356,1075.6
186.045,223.8
186.0703,677.8
186.0776,30989
186.0974,16.7
186.1707,20.3
186.2088,883.2
186.2952,232.6
186.3757,182.2
186.4916,280.6
186.5437,17.9
186.5495,200.7
186.5731,504.9
186.6338,101.1
186.6616,596.5
186.701,315.2
186.8882,167.7
186.912,1862.5
186.9671,19.9
186.9851,712.7
187.0303,2383.4
187.0531,133.1
187.0716,405.8
187.0813,267.3
187.0943,111.7
187.1019,178.9
187.1077,2243.8
187.1469,150.9
187.2006,866.9
187.282,167.4
187.3272,159.7
187.3621,91.4
187.4273,114.6
187.5329,145.2
187.6026,19.7
187.7224,606.1
187.7294,108.9
187.7484,102.7
187.8376,182.3
187.8503,502.4
187.8631,162.9
187.8859,19.7
187.8975,143.2
187.944,628.3
187.9604,141.7
187.9629,706
187.9813,519.7
188.0664,142.5
188.1083,479.6
188.1548,666.1
188.1707,195.9
188.2364,108.2
188.2668,158
188.2914,18.6
188.3514,288.2
188.4293,100.8
188.4322,18
188.5201,211.8
188.5891,697.5
188.6973,366.5
188.7167,213.1
188.7463,196.1
188.8767,24.7
188.88,92.5
188.9431,119
188.9951,199.7
189.0063,160.5
189.0158,154.1
189.021,73.4
189.0274,215.3
189.0611,3427.9
189.0871,8165
189.1852,140.7
189.2018,96.9
189.2553,359.2
189.2801,18.1
189.3374,118.6
189.3491,338.9
189.4359,333.4
189.5799,277.9
189.6213,648.1
189.7136,554.3
189.7236,118.3
189.8529,91.3
189.8756,30.6
189.8843,532.7
189.9328,105.6
190.0031,123.7
190.0265,4533.9
190.0658,18.4
190.194,161
190.2206,18.7
190.3201,138
190.3839,201.3
190.4989,149.1
190.503,18.9
190.5075,156.3
190.5783,159.4
190.5839,409.5
190.6812,251
190.7081,451.8
190.7117,305.1
190.7619,165.3
190.8725,452.2
190.8882,266.8
190.912,2491.4
190.9491,27.3
191.0002,98
191.0082,4593.5
191.0133,16.5
191.0348,105.7
191.0404,77211.8
191.0768,17379.9
191.1067,19.4
191.1822,333.5
191.256,438.9
191.2938,147.7
191.3297,182.1
191.4677,17.4
191.5409,506.8
191.5893,97.1
191.6217,615.7
191.7085,552.6
191.7742,19.5
191.8064,222.2
191.8502,108.5
191.8686,856.3
191.8732,28.5
191.8803,29.4
191.9529,299.8
191.9823,579.3
192.0025,322.4
192.0111,22
192.0145,1219.4
192.0191,114.3
192.0292,424
192.0398,12284
192.0437,2258.9
192.062,277.4
192.0941,591.3
192.1698,621.7
192.2021,138.4
192.3004,17.2
192.3769,20.8
192.4166,85.2
192.4943,769.8
192.5126,196.7
192.6074,891.7
192.6894,137.2
192.8739,18.9
192.9106,81.6
192.9468,293.3
192.9642,292.3
192.9667,19.5
192.9797,510.6
192.9958,27
192.9985,2830.9
193.0159,136.1
193.0241,777
193.035,2441.9
193.1384,21.4
193.1451,84
193.1643,799.9
193.2202,431.3
193.3049,16.7
193.4029,169.4
193.48,162
193.5003,89.2
193.6352,335.4
193.6844,17.4
193.735,105
193.7511,284.4
193.7689,77.7
193.7823,644.8
193.8316,530.9
193.9074,124
193.9215,116.2
193.973,174.3
193.9979,2848
194.0101,293
194.0141,188.6
194.0178,121
194.0328,4931.2
194.0718,842.5
194.154,51.3
194.1877,408.3
194.2258,19.1
194.2639,90.2
194.3042,700.9
194.3114,121.9
194.3551,181.7
194.3625,19.4
194.3729,88.8
194.4083,290.4
194.4505,547.8
194.5875,362.7
194.5972,17.2
194.6361,158.6
194.649,253.9
194.7536,147.2
194.7912,115.3
194.8713,17.5
194.9038,224.8
194.9849,851.2
195.0012,908.8
195.0076,173.2
195.014,158.6
195.0393,497.8
195.0444,252.4
195.0539,89.4
195.1047,136.5
195.1149,767
195.1477,232.2
195.169,147.2
195.1933,166.5
195.2677,111.3
195.3183,128.7
195.3573,40.5
195.4067,177
195.4312,306.8
195.5635,818.8
195.6264,158.7
195.6331,83
195.6624,17.6
195.6905,485.4
195.8255,840
195.8846,86
195.9528,831.7
195.9773,2537.9
196.0346,5974.2
196.0791,371.5
196.1697,269.7
196.2507,698.3
196.3295,260.7
196.3419,379.9
196.5347,301.7
196.5683,615.7
196.7086,368.6
196.7168,192.1
196.7422,22.1
196.7552,127.7
196.7867,105.9
196.7933,221.2
196.8651,2168.2
196.8684,1249.4
196.8781,2583.9
196.9325,198.7
196.9757,503.4
197.0034,287.1
197.0235,135.6
197.1013,563.9
197.1302,664.4
197.232,734.2
197.3034,334.6
197.4748,236.5
197.4791,899.2
197.5059,322.2
197.5982,802.4
197.6008,19
197.6239,16.9
197.6481,631.9
197.7626,646.4
197.7647,209.3
197.7988,604
197.8577,518.3
197.8697,17.7
197.8821,113.7
197.8909,46.2
197.9057,20.7
197.9433,283.9
198.0068,19.5
198.0528,462.5
198.0763,606.6
198.085,8861.6
198.0891,865.1
198.0943,583
198.12,86
198.1522,113.8
198.1824,374.1
198.1854,4718
198.3715,19.9
198.447,479.8
198.4623,593.9
198.4758,21
198.6489,92.6
198.6509,81.7
198.7234,110.4
198.7527,544.5
198.7625,81.5
198.8504,676.7
198.8542,25.4
198.8621,2093.9
198.9255,471.8
199.0026,947.1
199.0164,304.4
199.0392,119.2
199.0449,122.9
199.0687,139.8
199.0755,562.1
199.0801,25.8
199.0836,86
199.1085,944
199.1685,92.5
199.171,315.6
199.1887,198.7
199.3466,664.6
199.3648,18.8
199.392,457.8
199.4423,104.7
199.5164,153.1
199.5292,102.5
199.5382,202.5
199.5787,217.7
199.6109,296.1
199.7824,197.5
199.8299,93.1
199.979,115.2
199.9854,722.7
199.9907,37483.9
199.9948,167.5
200.007,448.7
200.0133,17
200.028,109.4
200.0407,11997.1
200.0682,135.5
200.1268,105.2
200.1344,744.9
200.1789,751.5
200.18,750.3
200.1829,904.4
200.2325,122.5
200.2525,20.6
200.2704,19.2
200.2735,504.2
200.2813,9869.2
200.2893,122.4
200.3096,543.2
200.3513,382.4
200.37,187.5
200.4564,289.7
200.5443,137.7
200.5798,126.4
200.5824,129.2
200.7574,911.9
200.7895,127.4
200.8562,360
200.8814,782.6
200.8943,506
201.0443,327.2
201.0547,133.8
201.0611,258.9
201.0792,693.3
201.0869,31.3
201.1696,368.3
201.2112,710
201.3372,736.2
201.3527,601
201.4006,303.7
201.4088,88.7
201.4779,94.1
201.5642,177.7
201.6154,126.4
201.703,512
201.7306,268.4
201.7419,204.3
201.7799,808.8
201.8647,152.6
201.8943,43
201.943,94
201.9565,19.2
201.9728,17.7
201.9955,213.2
202.0162,120.1
202.1117,101.5
202.1302,202.1
202.2549,605.9
202.2823,244.6
202.3013,640.6
202.3058,132.3
202.4391,17.7
202.4982,863.7
202.5042,98.8
202.5306,271.1
202.5405,220.4
202.5613,620.5
202.5788,113.2
202.5836,101.1
202.6114,141.5
202.6182,17950.5
202.6245,200.7
202.6621,521.4
202.6671,220
202.8086,185.6
202.8951,55.9
202.8996,458.4
202.9631,135.5
203.0319,530.2
203.0527,937502.6
203.063,141.6
203.0768,7641.6
203.1024,218.6
203.1516,18.4
203.2232,187
203.2353,175.4
203.2721,148.7
203.5276,443.4
203.5643,146.9
203.6692,143.1
203.8163,887.9
203.8384,19.1
203.8422,271.2
203.8459,304.2
203.8613,102.8
203.874,464.2
203.9458,22.9
203.9666,129.2
204.0095,421.4
204.0244,50493.6
204.032,62.6
204.0516,19.2
204.056,44847.7
204.1022,162.2
204.105,563.4
204.1468,120.5
204.1895,90.6
204.2382,162.4
204.3083,134.7
204.323,887.5
204.4447,110.3
204.4767,17.2
204.8407,158.8
204.8618,21.6
204.8887,147.9
204.8979,87
204.9416,163.4
204.9564,20.9
204.9905,343.6
205.0161,28.5
205.0279,721.6
205.0424,598.1
205.0571,4381.8
205.0835,50.5
205.0923,202.1
205.2091,136.5
205.2867,357.1
205.3191,715.2
205.4074,87
205.4123,118.7
205.442,538.8
205.5186,147.6
205.5498,401.4
205.5922,533.1
205.5947,394.7
205.6159,96.7
205.7638,271.3
205.7815,123
205.8266,121.9
205.8351,324.9
205.8518,722.1
205.8945,223.1
205.9399,22.2
205.9732,146.7
205.9917,123
206.0474,165.1
206.0554,2202.5
206.0697,729.7
206.1263,136
206.2354,542.5
206.2835,18
206.3124,22
206.3466,513.3
206.3957,97.3
206.408,896.6
206.5723,755.6
206.5788,233.6
206.6171,677.2
206.672,902.5
206.7178,86.1
206.8088,565.5
206.8107,248.8
206.8878,86.3
206.894,8673.4
206.9169,255.2
206.9285,720.2
206.9411,212.9
206.9568,310.4
206.9821,3739.6
206.9978,154.2
207.0143,74150.9
207.0311,26.9
207.0442,1832.9
207.0507,13121.3
207.0619,19.4
207.0646,21.6
207.1078,148.8
207.1212,89.8
207.1275,233.1
207.2784,139.1
207.2982,198.7
207.3256,144.8
207.3308,817.5
207.3879,169.8
207.4004,106.5
207.4357,334.2
207.5378,115.9
207.5697,530.9
207.6593,488.8
207.7474,203.8
207.8079,560.3
207.8641,182.8
207.8862,70.6
207.9018,141
207.9882,453.8
207.9906,1090.3
208.0021,20.1
208.0137,1392
208.0176,2429.1
208.0276,502.8
208.1082,282.4
208.17,88.6
208.1829,685.7
208.4099,370.5
208.4462,371.4
208.4491,20.9
208.666,187.1
208.7568,19.8
208.8144,481.8
208.8303,107.7
208.8783,259
208.8831,1414.7
208.8911,3752.6
208.9388,114.7
208.9725,450
209.0091,540.6
209.0123,2891.4
209.1118,359.6
209.1173,21.7
209.2492,297.8
209.2698,173
209.3597,307.9
209.3796,663.6
209.3924,728.3
209.4505,122
209.4576,17.3
209.4711,114.7
209.4896,179.8
209.5478,373.2
209.5594,99.2
209.5836,175
209.9577,19.9
209.9771,26.2
210.4789,17.1
210.6736,138.5
210.7067,289.7
210.7695,93.7
210.8464,298.2
210.8879,352.4
210.948,93.8
210.9514,24.3
210.9757,135.2
211.0467,100.6
211.0655,408
211.0692,830.3
211.1358,688.5
211.1502,181.8
211.1736,18.9
211.2294,474.3
211.2444,18.1
211.2577,232.7
211.2893,11911.7
211.2918,8598.8
211.2994,17813.9
211.3088,32581.3
211.3142,34935.1
211.3238,138.9
211.6351,179.5
211.8625,21.4
211.937,595.6
211.9437,704.6
211.9589,52.7
211.9669,70.2
211.9857,19.5
211.9974,958.7
212.0194,17.1
212.0249,135.1
212.0739,106.2
212.1153,152.3
212.1739,664.5
212.2138,393.9
212.2518,402.4
212.2594,156.8
212.2899,207.5
212.3135,190.6
212.4185,184.4
212.4367,675.1
212.4464,489.2
212.4738,255.7
212.4807,89.6
212.5386,205.3
212.5936,110.4
212.6143,116.2
212.6638,524.9
212.6666,153.7
212.6764,576.8
212.7078,168.9
212.8391,1411.7
212.8518,18.5
212.8699,22.6
212.9505,764.1
213.0227,175.9
213.032,28.1
213.0748,2849.2
213.2381,774.5
213.3121,215.9
213.3412,344.3
213.4254,946.3
213.4318,480.3
213.5564,197.9
213.6168,266.6
213.6439,17.8
213.7335,22.5
213.8579,116.6
213.9118,630.8
213.9374,257.3
213.9568,173.4
213.9621,2141
213.9845,212.5
214.0064,308.9
214.0325,125.4
214.059,20837.1
214.0897,935.8
214.1377,136.7
214.1519,644.7
214.2733,109.9
214.3321,753.6
214.432,87.9
214.4648,95.6
214.4765,160.6
214.5811,550.1
214.6303,432.9
214.6836,812.8
214.7323,887.1
214.7359,369
214.8359,1572.8
214.8407,837.9
214.8641,821.4
214.8733,72.8
214.878,687.7
214.9101,214.4
214.9177,46
214.9654,80
214.9993,88.5
215.0479,128.2
215.0794,405.1
215.093,62.8
215.1178,1069.1
215.1364,327.1
215.2877,205.9
215.3189,520.6
215.3426,95.1
215.4329,188.1
215.5882,735
215.6375,514.4
215.6647,593.4
215.8027,574.1
215.8743,20.7
215.9581,55.9
215.9883,119.5
216.0146,10513.9
216.0202,378.7
216.0251,99.9
216.0575,199.8
216.0857,17.7
216.176,477.8
216.2232,678.3
216.2295,1036.3
216.2612,255.7
216.2714,855.2
216.3211,266.2
216.3866,298.9
216.3898,20.1
216.5556,388.6
216.5597,107.1
216.6307,230.3
216.7109,22.1
216.7842,746.3
216.9228,26788.1
217.0184,499.7
217.0215,98.4
217.027,113
217.126,319.6
217.1373,198
217.1884,208.3
217.3514,134
217.4112,740.4
217.4421,108
217.4659,116.6
217.5082,115.7
217.5494,896.8
217.6189,127.3
217.662,745
217.6796,134.7
217.696,372.6
217.7222,193.6
217.793,242.5
217.8587,680.9
217.957,221.2
218.0866,22.9
218.1311,193
218.1517,30.2
218.2576,19.4
218.3247,22.1
218.3556,243.4
218.3969,88.8
218.4222,411.2
218.5568,502.3
218.5634,717.8
218.8024,158.8
218.8675,102.4
218.9045,91.8
218.9199,8400
218.9506,896
218.9936,479.5
219.0066,141.5
219.0266,1337434.1
219.032,365
219.0326,368.8
219.083,7550.2
219.3293,589.2
219.3638,239.1
219.4437,871.5
219.4645,146.9
219.5039,106.1
219.508,142.9
219.6128,762.4
219.8548,1413.6
219.8989,94.5
219.9385,17
219.9833,229.5
220.03,62358.1
220.0371,2211.7
220.0669,5941.5
220.0719,111.1
220.1104,17.9
220.1673,519.8
220.3128,19.3
220.4335,22.5
220.4767,579
220.5041,294.7
220.5669,842.6
220.6983,1062.5
220.7361,177.2
220.7785,662.8
220.8051,162
220.8173,188.8
220.8473,936.6
220.905,72.4
220.9333,19.1
220.9804,101.7
221.004,988
221.0247,75890.4
221.0309,9238.6
221.0508,983.9
221.0849,505.9
221.1913,245.8
221.1926,242.5
221.2285,272.3
221.2459,186.1
221.2985,125.4
221.3481,17.2
221.5919,909.9
221.5949,148.2
221.7144,532.3
221.8579,249.5
221.8656,116.9
221.8803,126.7
221.9353,263.1
221.9562,156.3
221.9707,192
221.9838,919.5
222.0062,284.5
222.0195,200.2
222.028,1175.8
222.0932,200.8
222.127,676.8
222.1869,123.6
222.2001,549.3
222.2876,121.5
222.2991,193.1
222.3942,867.6
222.4442,179.8
222.5208,202.8
222.5426,525
222.6094,579.5
222.6413,899.3
222.7425,1018.2
222.8004,896.6
222.8212,129.1
222.8394,258.1
222.868,10077.9
222.8988,568.1
222.9324,148.9
222.954,1217.5
222.9883,14347.8
223.0244,1686.4
223.037,199.2
223.0637,28.3
223.0812,85.4
223.0896,906.1
223.1972,18.5
223.2964,87.4
223.3145,853.6
223.3396,676.3
223.3825,169.2
223.5163,142.8
223.5691,113.9
223.5839,188.8
223.6226,194.7
223.7426,735.3
223.7862,101
223.7883,248.1
223.8974,395.1
223.953,39.8
223.9715,904
223.9812,22.8
223.9891,262.7
224.0079,84.4
224.0295,528.7
224.1459,115
224.297,225.7
224.4644,135.8
224.5236,630
224.7084,402.4
224.8649,4394.6
224.8976,23.4
224.9275,153.6
224.9547,758.3
224.9681,1123.5
224.9863,1070.6
224.9926,511.7
225.0238,33
225.0548,31737.3
225.0844,401
225.1108,620.4
225.2226,794.5
225.3874,329
225.3988,628.1
225.4513,253.7
225.4602,101.9
225.5167,160.3
225.5338,18.1
225.7773,202.3
225.791,148.5
225.8567,650.4
225.8636,241.8
225.8723,209.4
225.9521,24.3
225.9625,32.7
226.0022,92
226.0064,2023.9
226.0133,822.1
226.0242,7894.5
226.0452,5526.3
226.0907,770.4
226.1649,18.7
226.3752,280.4
226.3977,266.8
226.4842,487.4
226.4876,612
226.6566,530.9
226.6681,895.6
226.7444,152.1
226.862,576.7
226.8783,21.4
226.8934,27
226.9018,113.1
226.9169,111.6
226.9208,19.1
226.9516,20505.2
227.0045,296.9
227.0085,157.8
227.034,498.3
227.043,345.7
227.0688,116.2
227.0863,93
227.2646,235.8
227.3591,19.4
227.3641,805.8
227.4888,402.9
227.5814,893.6
227.626,304.2
227.6784,18.5
227.7252,118.4
227.7689,20.6
227.7795,273.9
227.79,518.3
227.8559,245.3
227.8818,149.2
227.8913,752.8
227.9242,801.3
227.9443,136.3
227.9551,776.5
227.9617,226.8
227.9668,16.9
227.9726,283.2
227.9755,166.7
227.9846,21.6
228.0002,147.5
228.0221,647.5
228.0448,656.3
228.0502,273.6
228.0562,577.5
228.0825,17.4
228.1666,163.5
228.2167,112.3
228.3201,687.2
228.4587,783
228.5807,184.6
228.6345,155.9
228.7846,166.9
228.7989,108.3
228.8949,219.2
228.9235,180.8
228.9514,745
228.9601,101.6
229.0213,107.7
229.1026,116
229.1103,228
229.2791,176
229.2922,185.3
229.3916,612.8
229.3981,95.9
229.5079,99.2
229.6108,122.3
229.7123,374.4
229.7494,705.3
229.768,620.5
229.7797,503.6
229.8435,159.3
229.8719,20.7
229.9571,7540.7
230.0334,135.7
230.1139,684.6
230.1999,507.4
230.4729,18.2
230.4839,927
230.5724,839.3
230.5905,128.4
230.7715,96.4
230.81,923.3
230.8809,476.8
230.8901,393.5
230.9603,292.7
230.9651,238.5
231.0133,819.1
231.0201,142
231.2643,363.3
231.2981,19.8
231.3098,17.2
231.4416,275
231.49,243
231.4917,253.8
231.4931,324.6
231.6998,201.6
231.7136,274.4
231.7224,103
231.7993,99.8
231.8247,548.2
231.829,685
231.9072,24.3
231.9147,18.4
231.9529,142.1
231.9574,199.9
231.9638,149.9
231.9726,124.5
231.9951,87.4
232.0138,166.9
232.0198,108.6
232.2399,355
232.2695,530.9
232.3003,717.8
232.3529,140.5
232.3847,124.1
232.3984,632.2
232.4581,83
232.4815,762
232.5788,313.3
232.6517,133.8
232.6556,216.3
232.7686,529.5
232.8072,410.2
232.8834,62.3
232.8967,29122.3
232.9856,417.5
233.051,9727.2
233.1119,354.8
233.1184,94
233.2142,519.5
233.2296,661.6
233.2564,189
233.3348,743.3
233.3772,80.6
233.4584,717.6
233.5638,471.3
233.6303,200.5
233.6439,91.7
233.6581,632.1
233.6987,565.6
233.7234,406.2
233.8718,405
233.944,557.9
233.9531,62
233.9653,418.8
234.0098,118.5
234.2534,192
234.3162,207.9
234.3372,479.4
234.4417,205.7
234.4818,183.2
234.6076,359.9
234.8052,600
234.8512,181.7
234.8827,25.9
234.8937,7037.7
234.8991,20.8
234.9114,22.1
234.9511,16.8
234.9814,4393.3
235.0568,8844.2
235.0631,184.6
235.0667,1527.7
235.0926,7987
235.1051,620.3
235.1604,696.4
235.1918,165.6
235.2164,291.6
235.2482,956.9
235.6979,147.7
235.7231,19.5
235.7306,102.7
235.9973,97.6
236.0217,259
236.041,6461.5
236.0717,38526.5
236.0843,244.8
236.1095,327.4
236.1169,22.3
236.2126,369.6
236.2202,311.2
236.2467,849.7
236.2509,18.5
236.5323,195.6
236.878,257.7
236.9034,419.1
236.907,52
236.9331,21.3
236.9621,856.5
236.9845,268.9
237.0135,115.4
237.0298,215.3
237.0518,409.5
237.0709,54.9
237.0751,1738.5
237.1284,295.6
237.173,19
237.3086,23.4
237.4145,149.9
237.4204,808.7
237.5225,92.7
237.6705,241.2
237.7175,129.3
237.9329,307.3
237.9647,95.6
238.0014,94.9
238.0149,172.3
238.064,518.4
238.0675,628.6
238.078,62.7
238.1224,114.4
238.1366,698.7
238.1437,21.2
238.2754,96.7
238.2901,237.9
238.3699,598.4
238.6271,763
238.8419,4459.1
238.864,1085
238.9429,78.2
238.952,376.3
238.9814,787.2
239.0091,4065.8
239.051,339.6
239.0637,1636.4
239.068,1198.4
239.071,44.7
239.1098,30.2
239.3976,358
239.4568,18.5
239.7752,113.6
239.8532,137.1
239.9115,259
239.9784,22.5
240.0132,97.1
240.3938,949.2
240.4001,362.3
240.5772,132.5
240.592,646.9
240.6041,138.5
240.6229,208.5
240.7702,121.1
240.7828,17.9
240.7985,147.2
240.8386,1141.7
240.8648,609
240.8958,155.4
240.9078,246.5
240.9468,146.1
240.9729,25.3
240.9781,20.6
241.0232,499.4
241.0299,490.8
241.0468,960.4
241.0598,567.2
241.2033,21.4
241.2061,342.3
241.2448,597.4
241.306,120.3
241.3223,607
241.3843,147.9
241.4233,112.9
241.4915,121
241.5693,269.9
241.6509,18.4
241.7291,552.9
241.8274,274
241.9,118.5
241.9102,144.7
241.9774,163.1
241.9982,1677.7
242.0193,3731.3
242.0925,601.1
242.0969,180.8
242.2592,93.6
242.3966,948
242.4524,626.2
242.4699,624.3
242.7048,282.7
242.7713,644.3
242.8083,128.1
242.8133,381.7
242.8512,233.1
242.8812,523.8
242.9255,15954.9
242.9536,189.5
242.9756,22.4
242.9856,658.5
243.0009,172.9
243.0066,472.6
243.0326,620.6
243.0531,11207.1
243.0653,11742
243.169,356.4
243.2588,274.1
243.3033,467.4
243.3257,85.6
243.3508,865.5
243.3579,19.2
243.4603,170.4
243.5264,302.7
243.5504,347.2
243.5684,240
243.7549,152.8
243.8234,550.7
243.8267,157.8
243.8419,282
243.8577,681.8
243.9727,3456.3
244.0126,909.3
244.0711,94.1
244.0835,124.4
244.1197,19.6
244.173,88.2
244.222,115.3
244.2502,889.8
244.4631,174.8
244.4805,218.9
244.5833,111.6
244.6463,187.1
244.6903,515.4
244.7633,131.6
244.7677,871.3
244.7886,247.3
244.7965,113.8
244.8709,2558.7
244.9303,713.3
244.9614,86.7
244.9739,673.7
245.0499,329.8
245.0629,636.8
245.1113,556.9
245.4217,514.3
245.4635,249.3
245.5149,140.9
245.5198,1003.4
245.7235,130.8
245.8354,625.7
245.9732,115.5
245.9883,92.6
246.0013,68.1
246.0106,21.4
246.0388,20.3
246.2473,17.5
246.326,322
246.34,118.9
246.388,320.2
246.6145,89.7
246.6468,595.5
246.7749,185.5
246.7837,459.5
246.8075,49.8
246.8624,367.9
246.8677,687.3
246.9293,123.7
246.9514,1399.7
246.9851,264.2
247.0046,236.2
247.0282,21.8
247.0424,902.4
247.0664,1205.9
247.0927,3242.4
247.1522,18
247.179,782.8
247.2059,19.7
247.2095,550.5
247.2379,723.4
247.2905,352.2
247.4019,599.9
247.5514,540.6
247.5762,113.8
247.6182,104.4
247.6356,114.8
247.7025,397.7
247.7314,755.1
247.7902,211.6
247.7991,530.6
247.8352,91.5
247.8559,417
247.8651,96.6
247.8684,337.2
247.9224,53.3
247.9675,485.2
247.9832,126.1
248.1242,19426.1
248.3156,665.8
248.3213,381.6
248.3782,133.8
248.3862,514.5
248.4048,99
248.41,238.8
248.4627,368.9
248.4937,120.8
248.516,147.8
248.575,199
248.6498,107.4
248.7053,203.7
248.7231,375.9
248.7434,288.5
248.8077,21.3
248.8241,232.1
248.8365,129.2
248.8534,686.5
248.8623,19.2
248.8707,9787.7
248.9007,191.1
248.909,849.4
248.9483,148.1
248.9593,2323.5
249.0156,1634.6
249.0575,267.8
249.0611,9885.5
249.101,104.8
249.1079,435.8
249.1278,1113.4
249.4798,87.5
249.7415,259.4
249.7808,124.7
249.8428,313.5
249.8872,20
249.943,225.1
249.9496,105.1
249.9681,25.7
249.9826,917.2
250.0378,868.8
250.0644,95
250.1276,104.4
250.4024,19.1
250.5679,337.1
250.5785,140.1
250.5933,292.4
250.6147,244
250.6747,317.9
250.776,126.1
250.8225,899.7
250.8611,267.4
250.8678,956.3
250.8936,119.7
250.9555,793.6
250.9662,329.8
251.019,280.7
251.0339,2735.1
251.0406,20.5
251.2012,690.2
251.2803,163.4
251.345,137.7
251.359,911.3
251.5069,398.7
251.5308,121.4
251.5346,210.2
251.7468,108.7
251.8128,743.4
251.8173,270.6
251.8219,344.7
251.8774,21.8
251.8968,104.4
251.9799,125.2
252.0366,113.3
252.0456,92026.9
252.0599,94.7
252.1225,478.9
252.1465,18.1
252.1786,19.1
252.5606,19.1
252.5847,197.2
252.608,436.2
252.6377,757.2
252.643,173.1
252.6611,20.6
252.816,267.1
252.9172,578.5
252.9513,52.4
253.0245,95.4
253.049,6729.7
253.1819,108.2
253.247,993.6
253.6333,169.1
253.6545,687.5
253.6875,21.3
253.7728,130.4
253.8562,147.4
253.9369,361
253.9693,253.3
253.9725,507.9
254.0356,459.1
254.0436,2248.7
254.1202,61.6
254.1622,662.4
254.1681,20.5
254.231,275.3
254.3077,242.3
254.3294,151.1
254.3863,185.2
254.5128,123
254.592,115.5
254.8005,167.9
254.8158,1383.7
254.8238,2868.6
254.8692,334.6
254.9859,87.8
254.9895,250
255.0253,123
255.033,28250.5
255.0382,1806.5
255.0465,804.5
255.0587,167.5
255.0989,19.9
255.1059,109.2
255.1207,17.5
255.1641,377.2
255.2337,193.3
255.279,258.7
255.454,18
255.4883,347.7
255.4921,156.4
255.516,167.1
255.6152,133.8
255.8128,107.7
255.8848,198.7
255.973,27.1
255.9782,738.1
255.9902,386.7
256.0037,1079.5
256.0588,24
256.0675,245.3
256.1145,94.5
256.1737,424.8
256.2633,133.1
256.3264,225.7
256.4708,19
256.552,554.6
256.5691,17
256.7199,726.5
256.7664,122.3
256.7831,221.1
256.8131,1006.8
256.8209,4009.3
256.9126,145.1
256.9285,895.1
256.9972,217
257.0221,138.8
257.0487,7506
257.0657,899.9
257.0746,49236
257.0995,20
257.1064,152.2
257.1805,606.3
257.1836,650.6
257.2246,114.6
257.2528,420.1
257.3204,17.3
257.4254,186.3
257.4883,121
257.5865,750.6
257.6608,22.4
257.6837,183.8
257.7914,535.9
257.9365,91.1
257.952,305.7
257.9885,139
258.0299,525.8
258.0743,81.4
258.0785,980.3
258.1103,23202.3
258.159,19
258.2089,94.4
258.2914,372.6
258.32,537
258.3838,320.5
258.4261,232.7
258.4374,844
258.4553,346.5
258.5039,205.8
258.6239,19.8
258.6398,190.6
258.7558,342.4
258.8182,2193.1
258.833,104
258.8996,3940.3
258.907,153.9
258.9383,162.1
258.9584,768.5
259.0375,703.7
259.1204,20.2
259.1304,121.8
259.1886,589.8
259.2032,18.8
259.3012,196.1
259.3299,245.5
259.3451,145.7
259.3859,142
259.4021,102.5
259.5241,118.7
259.5281,372.5
259.5291,402.5
259.5319,209.7
259.5331,213.5
259.536,144.4
259.5766,307.3
259.6224,19.3
259.6328,1076.3
259.6646,199.6
259.7313,654.9
259.8417,527.6
260.094,326.9
260.2066,150
260.3611,738.1
260.4469,21.1
260.6717,127.8
260.7154,595.3
260.7442,19.6
260.8361,313.6
260.8446,1260.9
260.8822,96
260.8896,20.8
260.9491,1762
261.0462,426.6
261.1265,144
261.2143,21.2
261.254,97.4
261.2965,165
261.3058,99.5
261.3541,18.6
261.4815,298.6
261.5133,141.6
261.5853,320.5
261.612,301.9
261.6191,148.4
261.7131,601.9
261.8054,198.6
261.935,125.1
261.9833,202.2
262.0334,979.5
262.0976,112.8
262.1803,149.8
262.3101,614.1
262.6644,219.4
262.9155,24.4
262.9311,98.3
263.0126,718.8
263.2283,351.4
263.2513,404.7
263.2722,239.9
263.3128,687.1
263.3334,388.7
263.7671,625.1
263.9024,165.2
264.0473,317.5
264.1482,169.9
264.1561,135.1
264.2499,451.4
264.4262,425.4
264.5028,412.6
264.7713,90.2
264.8527,2144.7
264.873,99.1
264.9043,546.4
264.9335,4557.8
264.9727,928.4
264.9885,10319.2
265.0164,22.4
265.0352,8118.2
265.0474,2356.3
265.0563,578.7
265.1646,428.2
265.2179,20.1
265.4378,772.5
265.501,19
265.6105,871
265.7753,420
265.8289,552.6
265.8663,99
265.9574,85.2
265.9719,447.8
265.9782,348.7
265.9862,18.3
265.9926,182.4
266.064,320.2
266.1458,938.8
266.3175,97.8
266.3518,135
266.3805,630.1
266.4676,253.2
266.5919,137.7
266.6707,294.8
266.8496,1323.3
266.8682,19.5
266.8834,399.1
266.8941,523.9
266.9324,103.6
266.9588,86.5
267.0532,387
267.1177,518.3
267.1257,651.2
267.1586,442.1
267.24,272.9
267.363,23.7
267.3695,866.8
267.3766,184
267.3876,22.5
267.3913,338.5
267.4245,22.8
267.4375,300.2
267.5874,367.9
267.805,371.7
267.9323,185.7
267.9737,179.2
267.9939,739.1
268.0091,85.2
268.0223,916.8
268.0294,735.3
268.049,210.5
268.1544,19.4
268.2824,171.7
268.3823,249.8
268.5418,22.3
268.6579,912.7
268.7292,199.1
268.79,98
268.8222,270.9
268.844,332.9
268.8731,20.4
268.8788,692.2
268.8861,159.2
268.9405,765.1
268.9793,951.7
269.0279,361.9
269.034,356.3
269.0448,21237.1
269.0487,47240.4
269.0747,254.4
269.1267,648.2
269.1628,648.3
269.1924,239.4
269.2381,796.7
269.2511,618.4
269.2798,127.9
269.2847,99.9
269.6613,20
269.6974,114
269.7855,265.8
269.9517,19.2
269.9732,1229.8
269.9894,296.2
270.0095,176.7
270.0247,16048.2
270.0474,18015.2
270.145,2063.6
270.3325,351.4
270.4439,127
270.4821,662.1
270.5094,848.9
270.5543,112
270.565,559.6
270.6703,284.3
270.7979,1727.5
270.9227,434.3
270.96,65.9
270.9778,4802.1
271.0281,1447.2
271.0506,182.2
271.0609,193.5
271.0676,407.1
271.0902,3161.9
271.1289,17.6
271.3137,16.6
271.3238,274.4
271.3834,259.5
271.5493,513.7
271.721,121.1
271.8278,17
271.8819,311.5
271.888,420.5
271.9676,109.6
272.0002,109.4
272.0045,22.3
272.0205,523.7
272.0287,46.4
272.0426,515.7
272.0662,803.1
272.0746,423.9
272.0803,203.7
272.1371,532.8
272.1784,156.5
272.221,152
272.4861,173.4
272.6604,357.8
272.7572,114.7
272.7949,3562.8
272.8614,814.7
272.9071,708.2
272.9446,966.6
273.022,128.8
273.0483,2341.7
273.2128,164.8
273.4948,515.5
273.528,146.6
273.7454,421.3
273.8674,331.4
273.8716,195.8
273.9626,11648.9
274.0043,340.8
274.0695,122.6
274.0925,3068.2
274.1577,382.2
274.2524,149.4
274.2673,83.4
274.3565,156.4
274.3815,218
274.4328,288.4
274.5717,240.1
274.5763,726.8
274.7199,621.4
274.7733,694
274.7921,422.3
274.8025,21.3
274.8675,26
274.942,19.7
274.9636,552
274.9729,133
274.9826,57.7
275.0247,137.2
275.0441,112
275.0523,92.6
275.1179,507.1
275.2561,211.3
275.2907,367.6
275.4023,706.2
275.5767,392.9
275.6683,136.1
275.6922,210.8
275.9386,598.8
275.9914,3820.1
276.0033,125
276.0452,368.6
276.1406,556.1
276.1541,127.6
276.2166,446.7
276.2923,94.6
276.4705,516.3
276.523,403.7
276.5674,667.2
276.8041,161.7
276.8153,18.8
276.8681,565.8
276.8906,20.7
276.9029,815.5
276.9229,2689.4
277.0718,560.9
277.0849,718.2
277.1076,94.7
277.1868,377.1
277.2508,797.7
277.6083,745.8
277.6238,329.2
277.6612,522.5
277.8907,183.9
277.9351,127.8
277.9999,51.4
278.019,344.6
278.1255,381.4
278.2431,919.8
278.4197,255.1
278.4679,601.5
278.6618,20.5
278.7028,777.4
278.8468,31.9
278.8637,753.7
278.8895,208.1
278.9196,783.4
278.9871,629.9
279.0042,777.5
279.0566,38806
279.1569,220.4
279.1615,196.7
279.2104,381.1
279.3457,18.3
279.4359,994.3
279.7631,387.6
279.7686,474.8
279.7696,468.4
279.8025,108.3
279.8363,879.1
279.8651,703.4
279.8796,124.1
279.8879,861
279.8982,923.4
279.9057,1013.2
279.955,306.9
279.9993,25.4
280.0118,880.2
280.0486,229.6
280.06,692.2
280.0934,523
280.1822,535
280.4299,105.3
280.4508,401.6
280.4754,373.7
280.5648,164.9
280.5861,122.9
280.6045,138.3
280.6438,786.4
280.813,29.1
280.8266,1629.3
280.8405,753.4
280.8839,337.2
280.9325,773.9
281.0094,1910.4
281.0168,188.1
281.0327,102.6
281.0513,227.9
281.1419,193.6
281.186,348.9
281.2338,338.7
281.2637,326.6
281.2756,19.2
281.3304,111.1
281.4383,19.6
281.506,222.9
281.5116,18.8
281.5991,693.2
281.7814,92.2
281.8054,433.6
281.8466,19.5
282.0148,156.9
282.0578,191.1
282.0647,334.4
282.3062,94
282.4273,106.8
282.491,149.3
282.5013,132.1
282.5543,21.3
282.6238,18.8
282.7692,306.7
282.7916,171.6
282.8235,1191.1
282.8314,17.8
282.9446,312.4
283.0199,87.7
283.0281,826
283.0601,293.1
283.0678,20.7
283.1298,118.6
283.1853,86.9
283.2635,490.9
283.2997,529.8
283.5458,192.4
283.5864,124.6
283.6179,176.1
283.6222,97.3
283.6301,197
283.6772,463.3
283.7115,862.9
283.7232,157.7
283.8354,417.5
283.9535,123.9
283.9886,72.8
284.0042,51.2
284.0244,198.2
284.0527,21.4
284.0627,114.2
284.1894,16.6
284.2394,632.7
284.4539,509.2
284.6205,174.3
284.81,131.8
284.8483,169.7
284.8561,197.2
284.9419,770.8
284.9964,135.5
285.0225,422.4
285.0482,132.3
285.1064,226.2
285.1614,444.9
285.2868,362.5
285.4086,297.3
285.4395,88.6
285.5029,140.4
285.5896,152.1
285.788,600.3
285.8287,803.6
285.8496,20.1
285.9095,637.3
285.9683,777.2
285.9943,605.9
286.0197,4110.5
286.0293,171.4
286.1719,167.8
286.3902,18.9
286.5307,23.6
286.5489,92.4
286.5711,149.9
286.6263,158.8
286.7322,195.3
286.7368,833.5
286.7408,20.1
286.7718,1925.7
286.8263,277.1
286.8961,21.9
286.9517,3134.8
287.0231,309.8
287.0334,152.3
287.0553,37456.5
287.1542,201.7
287.2378,81.9
287.3957,80.6
287.5788,773.1
287.5991,150.8
287.6907,19.8
287.7566,177.5
287.8425,17.9
287.9495,47.6
287.9645,458.6
287.9962,439
288.0153,61.1
288.0354,188.8
288.0592,209.5
288.0847,68
288.1555,21438.9
288.1851,152.6
288.2351,90.8
288.2839,18.3
288.373,440.8
288.6056,158.4
288.7686,1672.6
288.833,140.2
288.9138,2358.7
288.9202,3747.1
288.9244,5034.7
288.9325,3698
288.9351,3416.8
288.9385,5253.5
288.9469,11470.1
288.9523,9371.5
288.9577,10503.4
288.9608,11060.9
288.9674,13097
288.9762,14663.2
288.9812,20808
288.9878,19075.1
288.9901,18828.6
288.9957,23478.7
289.0005,21183.4
289.0078,19777.1
289.013,19188.3
289.0196,14197.2
289.0279,13385.4
289.035,6008.3
289.0414,6186.2
289.0446,4838.4
289.0487,2425.2
289.0625,137.3
289.159,1208.1
289.1778,171.9
289.2448,570.8
289.2599,580.3
289.413,907.4
289.4429,19.8
289.4671,115.7
289.6579,119.4
289.9371,1670.2
290.0081,95.3
290.0325,682.6
290.0853,184.8
290.2759,524.6
290.3851,17.9
290.3885,301.4
290.4679,599
290.766,480.4
290.7892,196.2
290.7976,74.1
290.9235,22
291.0266,2662.9
291.0321,758.6
291.0817,339.1
291.1199,283.8
291.188,394.6
291.3032,201.8
291.4167,181.6
291.462,110
291.5094,151.6
291.5561,275.9
291.8198,1050
291.8646,188.4
291.869,353.7
291.9341,229
291.9655,8129.5
291.9726,128
291.994,425.7
292.0049,150.2
292.0584,131.2
292.0792,55.1
292.1036,600.3
292.1324,142.2
292.2062,174.3
292.2713,811.6
292.3379,171
292.3827,155.4
292.4195,755
292.6612,148.9
292.8613,20.2
293.0066,659.6
293.017,146.6
293.0444,781.5
293.0723,4057.9
293.0982,383262.5
293.1411,848.4
293.1793,1860.7
293.3612,219.3
293.3688,19.5
293.4021,98
293.4285,99.8
293.4579,129.9
293.5523,17.2
293.5851,279
293.63,114.2
293.6705,108.3
293.786,116.7
293.8229,20.6
294.1015,34042.1
294.1461,155.1
294.2988,229.2
294.439,138.9
294.5317,709.9
294.9904,149.9
295.0216,18.9
295.0305,2664.7
295.0592,175.1
295.0871,201.5
295.1022,845.2
295.1226,198.2
295.1947,14378.1
295.2114,235.8
295.2376,559.1
295.2514,863.3
295.5056,950.5
295.549,566
295.6151,266.9
295.6791,382.3
295.6978,146.5
295.7451,298.7
295.818,18
295.9321,999.9
295.9454,116.4
296.0261,25.6
296.0713,305
296.1042,523.3
296.1207,86.2
296.1289,575.2
296.1562,701.3
296.1985,922.2
296.3212,396.4
296.371,185.1
296.3926,931.2
296.4502,205.7
296.456,108
296.4673,103.6
296.7235,200.9
296.8011,926.1
296.8096,377.6
296.8573,26
296.8617,98.3
296.9826,242.8
296.9859,146.4
297.0482,101.5
297.1073,47.9
297.3723,117.2
297.4994,787.7
297.5075,120.6
297.6118,751.5
297.7257,185.4
297.872,480
298.0254,409.7
298.0317,426.9
298.0423,11272.2
298.0696,505.9
298.0957,17.6
298.1228,22.4
298.2482,356.8
298.2955,766.2
298.3383,527.8
298.3471,681.2
298.579,91.5
298.643,702
298.9093,212.5
299.0232,4110.2
299.0456,451.6
299.1389,1483.5
299.1688,502.4
299.2307,107
299.2597,572.2
299.309,117.2
299.4351,170.5
299.4454,99.8
299.5653,910.7
299.7969,188.6
299.9414,163.1
299.9565,145.1
300.0353,1280.9
300.0551,465.1
300.0759,676.8
300.1128,351.9
300.1965,22.1
300.2814,22.3
300.3064,864.9
300.4534,778.7
300.6353,157.1
300.7375,219.7
300.8022,1012.3
300.9261,790.1
300.9935,669.5
301.0127,189.8
301.0386,25756.8
301.1415,339.2
301.1913,553.6
301.2119,2136.2
301.7831,203.1
301.8506,169.5
301.8541,544.7
301.9939,5440.8
302.0199,1183.8
302.034,20.7
302.0511,256.6
302.0554,104.9
302.064,2996.3
302.1301,174
302.2124,262.4
302.2938,128.4
302.6887,903.4
302.7233,522.9
302.7333,190.7
302.7703,118.7
302.8292,3262.2
302.891,124.2
303.0154,326
303.0281,480.7
303.0542,20.8
303.0673,268.3
303.1398,157.9
303.1539,635.8
303.1935,146.3
303.2006,18.1
303.2168,1991
303.2886,111.9
303.3354,157.1
303.3444,213.9
303.444,620.7
303.5191,229.5
303.5982,96.1
303.6636,921.1
303.6975,501.3
303.8469,357
303.9716,392.2
303.9858,305.5
303.9978,20.2
304.0599,88.6
304.1102,18.4
304.1888,530.2
304.2323,473.9
304.244,333
304.4643,342.9
304.7284,240.2
304.7426,453.7
304.785,359
304.8266,488.5
304.8357,786.3
304.8996,453.8
304.906,34.3
304.9318,126
305.4183,217.3
305.6363,784.5
305.6935,460.1
305.734,402
305.7812,175.2
305.9025,859.5
305.9103,175.2
305.9497,673.5
305.9702,476.1
305.9831,99.3
305.9992,86.7
306.0398,376.5
306.095,37.6
306.1611,133.5
306.2067,18.2
306.2827,375.1
306.292,210.9
306.3904,18.2
306.4972,819.1
306.5754,20.3
306.6552,291.1
306.7538,735.7
306.7653,671.9
306.8125,229
306.8947,41.7
306.9576,400.8
307.048,92.8
307.0539,436.1
307.0917,368.6
307.1184,104.5
307.1344,391
307.2746,203.1
307.3242,259
307.3524,235.9
307.3633,177.1
307.5509,87.8
307.6966,100.3
307.7782,328.9
307.8043,274.6
307.8057,278.3
307.8907,187.3
307.8959,423.2
307.9297,630.8
307.9394,11146.4
308.1453,299.9
308.1715,255.9
308.2351,801.5
308.2924,510.3
308.4586,108.5
308.627,711.6
308.6864,196.2
308.7423,122.7
308.7532,132.8
308.8081,163.8
308.8921,148.5
308.9145,19.6
308.9869,764.6
309.0062,35
309.0377,3266.9
309.0468,95.6
309.0824,531.5
309.1513,80.3
309.3125,367.1
309.4311,120.5
309.5542,677
309.6464,129.2
309.7743,283.4
309.7998,975.4
309.9382,361.1
310.0198,22.4
310.1487,885.8
310.484,18.3
310.7537,131.8
310.8765,619.7
310.9026,19.3
310.9883,409.8
310.9973,970.7
311.0031,22
311.1671,199.5
311.2582,498.6
311.2829,443.3
311.3097,296.4
311.7087,284.7
311.7289,547.5
311.8802,456.2
311.9099,684.3
311.9989,61.1
312.0193,260.7
312.0236,880.4
312.0299,1012.2
312.0404,911.5
312.1023,377.6
312.1481,240.6
312.1656,108.2
312.1853,494.2
312.4309,398.9
312.4738,142.1
312.5709,103.7
312.6059,95.3
312.6491,568
312.8895,224.7
312.9966,92
313.0178,202.5
313.0311,359.4
313.274,39883.1
313.3763,179.1
313.5781,140.5
313.7817,135.7
313.8068,223.4
313.8888,722.2
313.9966,23.3
314.0146,5175.3
314.0332,106.9
314.0911,112.2
314.0961,109.6
314.1204,177.2
314.2327,143.5
314.2584,412.7
314.2774,5257.3
314.361,106.2
314.3988,99.3
314.4605,197.1
314.6019,170
314.6432,171.5
314.7983,26.5
314.8188,730.4
314.8369,4824.3
314.9991,5107.1
315.018,711.8
315.0551,7823.7
315.0617,4732.7
315.0661,18696.7
315.0699,24654.9
315.0802,10116257
315.0876,29155.5
315.0921,12417.2
315.0942,10456.5
315.0963,9216.2
315.0981,7545.4
315.1027,3879.1
315.1045,3341.2
315.1131,656.1
315.1446,380.4
315.1614,6243
315.1724,742.4
315.2035,772.9
315.3236,5956
315.361,133.4
315.3637,126.6
315.4863,442.4
315.6098,211.8
315.6254,640.8
315.6782,942.5
315.7197,358.6
315.7991,650.6
315.8356,131.4
315.9031,165.6
316.0101,360.2
316.0222,21.2
316.053,54.3
316.0689,812.2
316.0774,54924.4
316.0835,1048367.8
316.0991,112.2
316.1129,1106.8
316.1497,136.4
316.3719,19
316.4027,143.7
316.5021,578.7
316.6286,23.5
316.6818,372.4
316.7972,46
316.8825,110
316.9861,1251.4
317.0404,140.8
317.0557,1368.9
317.0653,863.4
317.084,116349.9
317.1181,222
317.3262,306.4
317.3392,388.2
317.5175,219
317.5736,25.6
317.601,19.5
317.8309,165.3
317.8553,162.8
317.899,376.5
317.9196,22.7
317.9464,849.5
317.9867,565.9
318.0114,282.7
318.0462,22
318.0662,636.5
318.0875,11532.9
318.2806,255.3
318.3931,801.8
318.4008,17.1
318.4234,533.2
318.4482,483
318.6726,19.2
318.7925,548.9
318.8029,576.7
318.8351,997.3
318.8637,17.6
318.9064,151.3
319.0403,697.1
319.13,693.4
319.1946,36595.3
319.3474,117.5
319.4155,271.2
319.4354,181.3
319.7455,333.3
319.8856,161.7
319.9149,701.4
320.0049,120.7
320.0339,211.3
320.0744,62
320.136,143.3
320.1881,19.3
320.1924,384.8
320.198,2769.7
320.2586,1574.4
320.411,781.7
320.4616,718
320.5781,254.7
320.7361,17.4
320.8044,247.3
320.8309,44.3
321.0696,280.4
321.1183,17.7
321.1738,657.5
321.2104,24733.3
321.2619,100.8
321.2789,600.6
321.3693,516.3
321.5632,850.3
321.6422,534.7
321.6836,154.1
321.6938,140.5
321.8164,83.5
321.888,909.1
321.9935,21.8
322.0088,160.6
322.13,208.7
322.2135,1482.3
322.2745,239.8
322.3454,184.7
322.4302,692.4
322.4579,84.7
322.6411,812.4
322.7716,147.4
322.8215,163.3
322.8683,356.6
322.908,109.1
323.0128,18.1
323.0206,8509
323.1638,720.1
323.2066,170.7
323.2259,1028.9
323.4922,180.6
323.6462,858.8
323.6719,105.4
323.8307,151.2
324.0017,9210.1
324.1813,105.9
324.41,171.3
324.4633,196.8
324.5452,775.9
324.6659,4489.1
324.6756,3981.8
324.6804,4325.9
324.6976,632.8
324.7051,218.8
324.713,96.5
324.7528,17.7
324.8494,119.9
324.9199,107.8
325.002,1557.9
325.0924,813.8
325.2119,4501
325.3591,169.8
325.4885,117.8
325.7107,171
325.7637,120.4
325.8157,453.7
325.8687,92.3
325.8878,601.8
325.9092,107.8
325.9256,344.3
325.9683,98.6
326.0045,40.2
326.0273,100.9
326.109,488.9
326.1624,121.9
326.1966,102.1
326.236,592.7
326.2743,114
326.2953,220.4
326.4302,99.9
326.4492,369.9
326.5082,91.4
326.6969,809.9
326.85,1113.3
326.8743,434.1
326.885,273.9
326.944,243.7
326.9808,814.4
327.0154,1411.1
327.2213,19.2
327.2274,7312.6
327.2403,97.3
327.3008,89
327.3799,18.2
327.4052,838.6
327.4687,471.8
327.5971,447.5
327.6324,370.9
328.0301,63.8
328.0614,645.5
328.0987,817.9
328.2304,539.7
328.3056,516.1
328.3776,157.8
328.4019,714.9
328.4445,152.2
328.4552,263.1
328.4663,105.7
328.4778,146.9
328.4899,99.7
328.7826,20.3
328.9005,199.8
328.9367,464.2
329.0812,318.9
329.0959,1264.2
329.1418,25.6
329.2235,136.5
329.6714,302.6
329.7674,138.2
329.8031,1028.9
330.0589,138.1
330.0836,21.7
330.283,146
330.3919,200.8
330.4142,416.6
330.4339,427.2
330.4482,417.5
330.518,285.8
330.7515,181.5
330.9152,195
331.0195,912.1
331.0453,110354.6
331.0541,1654823.8
331.0823,222.6
331.0866,96.5
331.1389,18.1
331.3158,90.1
331.3345,147.9
331.3467,125.4
331.3671,367.6
331.3724,17.4
331.4965,427
331.6398,309.1
331.679,89.9
332.0259,26.3
332.0479,5068.3
332.0574,150696.3
332.0668,422.6
332.1515,268.3
332.2306,105.9
332.6448,169.1
332.9728,123.4
333.0523,97444.5
333.0578,16029.6
333.1184,112.5
333.145,701.4
333.1518,178
333.2675,812.2
333.2772,23.2
333.4948,627.2
333.5056,126
333.8096,20.5
333.8476,421.4
333.9073,114.5
334.0556,8701.3
334.0768,195.9
334.0906,37.8
334.1396,506.5
334.1598,378.1
334.6592,151.3
334.8213,1015.6
334.8368,113.3
334.9083,119.6
335.0111,230.4
335.0321,146.4
335.1672,2041.5
335.2232,80.3
335.3398,180.6
335.4192,389.2
335.4959,18.8
335.5082,148.9
335.743,163.7
335.9878,869.8
336.009,899.8
336.0347,213.3
336.0846,21.8
336.171,265.5
336.2794,559.1
336.384,91.9
336.4053,158.4
336.4482,799.6
336.5641,119.6
336.7701,449.2
336.8807,95.5
336.9368,291.9
337.0362,12956.5
337.0496,26339.1
337.0621,650077.1
337.0814,138.3
337.0992,490.6
337.1823,852.7
337.2739,9892
337.3818,205.7
337.6688,19.2
337.772,518.4
337.98,159.3
338.0082,161.4
338.034,111
338.0398,143.8
338.0472,269.4
338.0536,341.8
338.0654,59004.4
338.1167,89.1
338.1242,245.7
338.2773,510.4
338.392,225
338.5118,113.1
338.6436,160.1
338.6519,163.3
338.6591,191.5
338.7075,18.1
338.8752,206
338.921,457.5
338.9947,725.6
339.0382,2024.9
339.0468,567.6
339.0659,3737.6
339.0913,201.7
339.116,179.2
339.1984,83.3
339.2898,3713
339.5816,334.7
339.7029,109.4
339.8573,1086.1
339.967,336.3
339.9758,1264.3
339.9866,729.1
340.0197,105.6
340.5926,113.8
340.7378,21.5
340.9875,117.2
341.0184,98.3
341.1863,566.7
341.2009,229.7
341.2328,613.4
341.3052,5458.3
341.3644,135.9
341.395,167
341.4383,128.2
341.4748,157.9
341.4939,490.7
341.6134,877.4
341.6373,22.3
341.7501,229.7
341.9889,257.7
342.0153,9425.2
342.1541,98.7
342.1673,181.4
342.2529,172.9
342.3172,116.3
342.4908,145.3
342.6134,20.7
342.6458,368.9
342.6686,156.2
342.9013,175.3
342.9901,906
343.0198,110
343.0265,1054.7
343.1146,860.4
343.1947,12574.4
343.2045,884
343.2209,134.7
343.4896,643.6
343.6207,118.3
343.6441,20.6
343.6878,126.7
343.7661,157.6
343.8737,109.6
343.9658,128.9
343.9878,340.4
344.0737,797.4
344.192,577.5
344.2548,261.8
344.4308,909.6
344.5215,457
344.7029,617.6
344.7592,765.2
344.8566,143.7
344.8635,363.2
344.8928,19.1
345.0241,102.5
345.0778,261.6
345.2475,367.9
345.3443,337.2
345.5866,96.6
345.8169,24
345.9237,569.5
345.949,22.1
345.9838,35594.2
345.9958,169.9
346.0102,174.1
346.0202,444
346.0409,190.3
346.1236,99
346.245,558.2
346.3363,196.2
346.5007,384.7
346.5059,131
346.7416,168.6
346.9879,1044.2
347.0175,4593.2
347.0443,28.5
347.1606,17
347.4771,125
347.6131,221.8
347.734,174.9
347.7545,172.9
347.7807,792.7
348.0237,173.8
348.249,177.2
348.4703,206.3
348.5213,97.4
348.5836,122.7
348.9632,109.5
349.018,676
349.3567,186.5
349.4237,522.1
349.4461,145.6
349.6832,583
349.866,171.4
349.8843,16.6
349.9047,740.2
349.914,125.5
349.9998,20.3
350.0387,205.2
350.0546,674.6
350.0848,6294.2
350.1261,157.8
350.1586,768.6
350.2342,109.3
350.3776,88.1
350.4111,282.8
350.4442,129.6
350.5459,18.8
350.6504,564.4
350.721,604.6
350.8069,325.1
350.8984,366.7
351.0139,208.1
351.0395,20.6
351.2773,705.8
351.4266,351.4
351.5936,196
351.6631,117.7
352.1544,96
352.2142,104.7
352.9437,257.4
353.0128,627.4
353.0272,152747.8
353.0361,301624.5
353.0991,102.5
353.1331,269.3
353.1724,460
353.2869,718.9
353.4815,845.7
353.6066,174.5
353.7518,510.4
353.8967,428.5
354.0302,8694.9
354.0395,28358.5
354.0636,364.2
354.1823,174.3
354.192,519.5
354.2272,170.6
354.3347,94.1
354.5674,298.5
354.7202,122.7
355.012,630.3
355.0343,16830
355.0702,763.4
355.1558,21.5
355.1717,185
355.2406,755.5
355.263,106.2
355.2808,481.1
355.3567,121.9
355.6018,170.8
355.6502,169.8
355.9806,102.3
356.0104,375.4
356.0212,161
356.0321,417
356.0536,551.1
356.0688,24.4
356.0784,792.8
356.2027,438.6
356.264,96.8
356.2849,105.1
356.3171,260.3
356.528,155.2
356.814,388.3
356.8344,19.7
357.0038,577.5
357.0086,276.6
357.0199,397.7
357.0672,33
357.1583,262.6
357.2637,336.4
357.4495,99.5
357.5539,97.1
357.626,140
357.6328,661.6
357.6398,1085.8
357.6478,325.8
357.6625,281.7
357.6739,133.1
357.7376,877.7
357.8027,114.8
357.8739,20.1
357.8808,139.1
357.9416,94.9
357.9774,1046.9
358.1329,539.4
358.3374,278.1
358.4168,956.1
358.4898,279.6
358.5838,90.5
358.6808,469.2
358.767,838.1
358.7889,92.6
358.8019,501.7
359.0072,154.2
359.0234,160.3
359.0315,18701.9
359.0441,445819.3
359.1663,260.2
359.1751,668.5
359.1824,17.9
359.3055,132.5
359.3188,386.4
359.3533,500
359.3605,737.9
359.3835,148.5
359.4184,690.4
359.4212,744.3
359.4414,1265.3
359.4485,489.6
359.4557,502.2
359.4677,417.9
359.4735,627.9
359.4955,621.7
359.509,991.2
359.5146,583.8
359.5196,787.2
359.5325,595.5
359.5434,32.6
359.5948,120.5
359.8254,544.4
359.9597,88.9
360.0004,888.4
360.0475,39523.6
360.0567,25.7
360.2918,330.4
360.3242,123.6
360.4364,1002.5
360.4819,231.8
360.7084,152.2
360.732,85
360.7549,23.7
360.8583,189.3
361.0201,4329.5
361.0475,908.9
361.2743,2868.1
361.4217,119
361.9577,12317.9
362.0002,723
362.2228,232.8
362.246,164.6
362.345,1072
362.4193,206.2
362.4794,174.1
362.7118,219
362.8181,22.8
362.8653,736.3
362.8936,131
362.9267,1049.4
362.9611,155.5
363.041,488.7
363.1123,719.9
363.1445,150.7
363.4405,390.4
363.5776,829.7
363.6355,204.3
363.7457,157.2
363.8608,506.1
363.8712,459.9
363.9077,246.1
363.9972,2968.1
364.0875,644.6
364.2072,583.9
364.2956,149.8
364.3965,135.3
364.4041,157.8
364.4757,119.7
364.5088,157.7
364.7891,911.6
364.9066,944.7
365.0993,123.8
365.1196,345.8
365.4527,109.7
365.6213,892
365.7744,208.5
365.8137,364.8
365.8291,145.8
365.8956,280.9
365.9854,52.7
366.037,371
366.0588,26889.5
366.2776,326.1
366.3557,952.7
366.4404,641.6
366.5272,649.7
366.5372,307
366.6644,801.6
366.9004,479.3
367.0619,376.4
367.1038,124.5
367.1836,766
367.1951,1514.9
367.3476,799.6
367.4305,713.1
367.5791,215.9
367.5955,157.2
367.7168,189.6
367.9572,170.6
367.9916,2131.1
368.0028,788.3
368.2227,773.2
368.2435,22.1
368.4422,118
368.4552,750.1
368.7358,355.9
368.7467,602.1
368.7653,325.6
368.8346,131.5
368.8873,136.3
368.9924,1676.8
369.0008,25586.9
369.01,15188.2
369.1108,149.6
369.1997,533.2
369.3169,139.4
369.3268,118.5
369.4501,722.7
369.7017,176.6
369.9938,611.3
370.0041,237.1
370.0125,168.6
370.2206,471.3
370.325,19
370.3776,18
370.433,81.1
370.4917,778.2
370.5726,176
370.6862,168
370.9997,2065.4
371.054,137.5
371.0796,126.2
371.4253,244.2
371.6888,767.1
371.874,344.5
371.8962,136.3
371.9826,1062.9
371.992,738.9
372.0669,20484.8
372.2358,168
372.4388,256.2
372.6346,299.9
372.641,319.3
372.6728,95.4
372.6849,616
372.7788,460.7
372.8031,488.6
372.995,258.5
373.0172,215
373.3687,383.4
373.3823,110.7
373.6051,315.7
373.6573,22.2
373.8676,101.6
373.9253,472.1
373.9501,23
373.9746,154.4
374.3359,162.4
374.3693,121.9
374.4021,906.4
374.4149,156.6
374.4293,858.7
374.4803,550.2
374.6146,220.9
374.6201,140.4
374.6353,137.8
375.0091,147267.3
375.018,170991.5
375.0546,90.2
375.4388,162.7
375.5968,163.6
375.7485,19.1
375.8278,144.8
375.8635,114.1
375.8672,190.4
375.9527,271.2
375.9645,53.5
376.0124,7549
376.0214,13392.2
376.1292,94.9
376.1784,818.2
376.2084,382.2
376.2701,98.6
376.3217,582.3
376.5315,174.2
376.5536,100.8
376.5651,176.2
376.6232,886.3
376.8725,127.4
376.9943,1309.4
377.0164,9786.7
377.3255,119.1
377.3515,342.9
377.3619,151
377.5455,136
377.5823,150.4
377.9316,855.3
377.9424,661
378.115,201.6
378.1567,110.2
378.1928,666.3
378.3345,128.7
378.4383,312.6
378.5303,106.5
378.9902,91.2
379.0598,225.7
379.3978,305.4
379.4115,811.3
379.6021,355.6
379.6311,251.6
379.7057,391
379.722,848.9
380.0723,99.4
380.2062,509.9
380.2794,852
380.3788,325
380.4071,123.1
380.5227,96.4
380.59,180.4
380.7134,19.8
380.7395,414.8
380.7695,573.4
380.786,448.5
380.8876,109.9
380.9011,96.2
380.9718,151.9
381.0135,29860.1
381.026,265349.1
381.1305,20.9
381.2658,165.4
381.2809,100.1
381.7125,148
381.7252,344.2
381.8615,216.9
381.9345,318.7
382.0293,24355.1
382.4743,345.1
382.4908,223.4
382.6759,145.3
382.7673,534.7
382.8368,21.9
383.0103,659.8
383.0301,377.2
383.1009,138.3
383.1163,137613.2
383.3219,95.9
383.4027,261.2
383.7432,109.4
383.8778,883.9
383.9431,114.1
383.9664,2559.4
384.0125,1048.4
384.1017,22.7
384.1196,14184.8
384.1822,590.6
384.3154,102.5
384.3812,17.7
384.4466,1017.4
384.4608,17.1
384.4731,548.2
384.5305,819.5
384.7594,97.8
384.7941,140.3
384.9383,683.3
384.9636,91.1
384.973,1704.1
384.9924,358.9
385.0661,200.5
385.072,153.7
385.1203,427.9
385.273,223.4
385.4772,20
385.5341,19.5
385.5691,191
385.6562,201.6
385.6762,169.1
385.6817,818.5
385.8023,751.9
385.9793,10868.3
386.563,352.3
386.5903,403
386.6219,162.1
386.678,87.8
386.9742,383.1
387.0032,1089.4
387.0208,298.9
387.1291,170.5
387.5665,162.6
387.6039,529
387.6708,373.3
387.722,121.4
387.7858,143.1
387.8207,88.4
387.8475,18.2
387.8768,164
387.9216,103.9
387.9786,822.6
388.0406,13563.2
388.1324,125.2
388.2375,194.9
388.3782,22.6
388.9145,143.2
388.9856,20
389.0261,189.2
389.1667,185.6
389.2607,125.2
389.3501,847.8
389.3956,101.4
389.5161,676.1
389.5235,309.8
389.5865,1391.6
389.9736,37626.3
390.2182,163.2
390.2826,571.7
390.5396,96.6
390.6759,162.2
390.8939,548.7
390.9041,1158.4
390.9272,454.6
390.9386,783.3
390.9613,826.8
390.9741,9046.2
390.983,33351.1
390.9919,21948.5
391.012,24.3
391.1072,278.9
391.4642,588.7
391.4823,221.7
391.5706,20.7
391.6042,298.8
391.7037,214.5
391.7597,200.2
391.8091,804.9
391.8282,128.5
391.9771,95
391.9943,237.4
392.0039,45.1
392.0514,346.9
392.3045,324.7
392.3241,162.8
392.6777,137.8
392.7609,532.5
392.7961,473.6
392.9355,136.6
392.9677,250.1
392.9817,3245.3
392.9899,825.7
393.0066,900.7
393.0524,188.1
393.0805,446
393.2865,96.1
393.3339,928.7
393.4032,998.5
393.4328,104.4
393.5619,141.3
393.759,150.1
393.7694,610
393.7963,116.8
393.8072,130.7
394.0184,255.4
394.1513,364.1
394.2914,157.6
394.5779,855
394.6971,491.1
394.778,338
394.9773,530.2
395.0735,24.2
395.0876,236.2
395.157,574.9
395.2152,196.4
395.4177,602.6
395.6337,389.7
395.6551,369.5
395.7129,203.4
395.7788,99.9
395.8528,425.8
396.0701,159.7
396.1573,102.8
396.174,541
396.1956,667.5
396.2185,236.5
396.3701,114.7
396.4448,108.5
396.5504,230.3
396.5853,95.6
396.8624,150.2
396.9911,161757.8
396.9999,102371.6
397.0259,319.1
397.1397,127.5
397.3418,160.8
397.4253,263.6
397.5628,579.6
397.5659,591.7
397.8503,402.7
397.9669,49.9
397.9947,11082.5
398.0031,7728.1
398.0935,19.8
398.125,929.1
398.2038,1012.3
398.2419,5476.2
398.306,336.2
398.3335,771.6
398.4104,242.9
398.5503,91
398.6337,551.1
398.7422,778.8
398.7619,1826.1
398.8674,178.2
398.918,756.4
398.9287,848.1
398.9984,2649.9
399.2158,139.1
399.3048,164.5
399.6214,305.6
400.0233,161.4
400.0655,18.9
400.1289,124.5
400.177,826.2
400.2078,113.6
400.4787,129.5
400.6182,393.4
400.7062,978.3
400.828,554.3
400.9187,834.9
401.0823,539.8
401.3224,584.4
401.3323,140.5
401.3557,142.5
401.7006,99.6
401.8905,479.8
401.9531,1633
402.1846,352.8
402.2167,106.4
402.3919,19.2
402.4726,19
402.7857,1039.4
403.0079,274079.8
403.2183,1079.9
403.234,120.5
403.2652,610.7
403.9421,1344.7
403.9525,366.6
403.9919,21.4
404.011,22898.7
404.1455,184.1
404.2426,446.2
404.5198,144.9
404.6631,349.5
404.6847,223.9
404.7213,20
404.7304,719.5
404.7629,488.6
404.9246,109.6
404.9349,720.2
405.0115,1239.4
405.1856,308.3
405.1924,308.8
405.2825,436.4
405.3581,208.5
405.477,92.7
405.5266,367.8
405.6023,408.1
405.6309,19.7
405.7554,169.7
405.9475,27565.7
405.9876,558.5
406.1817,121.6
406.3294,630.8
406.4629,740
406.7729,1082.7
406.9411,192.1
406.9433,193.2
406.9538,1393.6
406.9861,99.4
407.2171,584.5
407.3327,99.2
407.3437,138.3
407.6639,20
407.8034,194
407.8486,268.9
407.9457,1086.7
408.0223,166.2
408.0612,579.9
408.279,867.3
408.2982,27.2
408.5853,124.2
408.745,643.5
408.77,1367.9
408.8379,266.8
408.9847,992.1
408.997,683.1
409.0789,877.3
409.1113,382.4
409.3962,347.1
409.5053,93.9
409.5642,162.3
409.5753,590
409.8007,86.1
409.865,213.5
409.9129,132.2
409.9202,601.6
409.9294,19
410.0606,162.9
410.2537,83
410.2665,98.3
410.2871,20
410.3141,127.7
410.5602,154.6
410.5913,793.2
410.5981,788.1
410.8558,1037.5
410.9529,641
410.968,118.4
411.004,242.8
411.4744,95.6
411.5557,103.5
411.7021,798.9
411.7574,125.3
411.8479,540.9
411.9331,410.6
412.0762,104.9
412.145,117.1
412.1696,141.4
412.3215,1553.7
412.3853,819.2
412.6239,274.9
412.7236,18.7
412.8693,147
412.9521,103.8
412.9646,48109.9
412.9738,23827.8
413.1739,496.8
413.2094,505.9
413.2134,551
413.2389,111.8
413.2586,586.5
413.2666,5258
413.3247,154.5
413.5364,125.4
413.9248,159.9
413.9392,174.9
413.968,899
413.9811,126.5
414.1727,92
414.2689,668
414.3458,773.5
414.4535,89.3
414.5356,454.9
414.719,970.8
414.7958,22.1
414.8995,100.7
414.9635,1335.3
414.9731,414.9
414.9978,1842
415.0379,80.9
415.0659,101.8
415.1329,292.9
415.156,117.3
415.1608,120.7
415.163,118.1
415.222,1236.4
415.2608,248.9
415.2703,546.8
415.3499,661.1
415.702,141.6
415.9777,55.5
416.0055,106.6
416.1352,5593.6
416.2142,35052.7
416.3054,171.3
416.9141,536.2
417.0019,508.1
417.0171,96.2
417.0623,154.3
417.2173,3528.8
417.4268,213.4
417.5047,106.1
417.9274,254.2
418.1097,95.1
418.1437,125.1
418.3293,358.5
418.5095,162.1
418.617,158.4
418.8094,141.1
418.8239,92.4
418.9819,126865.6
419.3649,252.8
419.5305,136.9
419.8007,938.9
419.9854,9719.1
419.999,50
420.0903,22.4
420.3677,374.6
420.4955,147.7
420.5547,654.3
420.7295,81.7
420.7793,501.8
420.7862,19.4
420.8168,176.4
420.8517,162.6
420.8664,726.3
420.98,2743.4
420.9916,168.6
421.1965,19.4
421.2704,119.8
421.834,25.2
421.8447,143.2
421.9214,9006
421.9556,21.1
422.1746,266
422.3034,61.8
422.3144,904.9
422.4791,96.7
422.537,164.6
422.5963,17.9
422.6791,156.3
422.7833,18.6
422.8257,18.7
422.9808,112.8
422.9978,112.3
423.1481,388.5
423.2697,208.2
423.2942,119.9
423.5586,88
424.0531,190.5
424.1177,312
424.2826,1916.1
424.2924,719.2
424.3104,256.2
424.7416,375.3
424.7683,164.1
424.796,609.3
424.9593,393.2
424.983,526.3
425.0298,54.8
425.072,270.4
425.2046,437.2
425.2597,195.1
425.444,903.4
425.4781,562.1
425.5473,19.5
425.5675,402.1
425.5902,658.8
425.8059,128.2
425.9092,139.1
426.0905,98.6
426.0995,369.2
426.3426,151.3
426.4311,19.6
426.6202,19
426.7422,518.3
426.8494,427.5
426.9418,56.9
427.0393,22.8
427.1382,154.2
427.2013,19.6
427.3403,89.7
427.465,230.4
427.7092,442.7
427.7776,131.5
427.7991,522
428.2532,138.2
428.3,22.6
428.349,161.5
428.6243,136.9
428.6962,792.1
428.7569,19.4
428.7757,784.4
428.8222,729.3
428.8701,199.4
428.9379,11953.7
428.9833,209.8
428.9942,173.4
429.0028,263.9
429.0126,599.4
429.0285,101.3
429.089,391
429.1359,123.1
429.2526,228.3
429.3106,19.5
429.4554,360.9
429.6064,88.7
429.7154,149.7
429.8483,361.5
429.912,182.8
430.0004,853.1
430.0403,380.9
430.0878,57.5
430.1157,884.8
430.3582,175.9
430.448,168.3
430.5883,164.3
430.6093,482.9
431.189,126.3
431.217,2982.4
431.2482,198.3
431.2954,616.2
431.6807,850.3
431.8543,132.4
431.9492,28.6
431.9614,18.8
432.2152,705.7
432.4784,465.6
432.5003,415
432.7426,170
432.953,195.6
433.1656,364.7
433.2494,56.6
433.6051,179.2
433.6552,97
433.6872,200
433.7417,107.2
433.8109,595.4
433.8914,125.1
434.0152,23
434.1294,19
434.4212,890.6
434.5182,20.9
434.7928,521.8
434.904,181
434.9558,31400.3
435.559,430.1
435.5742,593.3
435.5993,601.8
435.7336,18
435.7828,125.2
435.9595,1885.7
436.0502,112
436.1245,116.8
436.1807,114.7
436.5599,229.7
436.7004,495.2
436.7196,226.5
436.9544,1349.7
436.9627,515.5
436.9936,163.1
437.0884,259.6
437.0923,272.1
437.2042,663.9
437.569,96.6
437.782,143.3
437.8382,386.2
437.9561,119.3
438.006,99.2
438.1939,396.2
438.4465,253.5
438.481,286.6
438.5338,265.6
438.7547,518.5
438.9728,2316
438.9846,6885.8
439.0348,148.1
439.1963,131.1
439.222,667.6
439.2463,157.2
439.5167,770.7
439.6079,697.4
439.7045,318.2
439.7092,108.7
439.9598,151.6
440.1064,683.3
440.1185,732.8
440.1359,119.2
440.2598,446.5
440.3019,173.4
440.3878,171.5
440.4477,552.9
440.7271,18.7
440.7519,348.2
440.7745,860.8
440.852,115.1
440.8575,119.4
440.9693,427.9
440.9819,461.6
441.1623,1124.3
441.1737,202.5
441.214,112.4
441.2818,97.8
441.2978,188.3
441.5409,743.2
441.5936,93.2
441.6413,1846.1
442.2129,337.2
442.3633,118.1
442.3721,166
442.4286,920
442.5725,130.6
442.7222,442.3
442.7788,629.2
442.9835,565.4
443.0939,646.8
443.1515,895.1
443.2529,1997.2
443.3038,105.2
443.3335,169.7
443.5616,612.5
443.6492,18.9
443.8141,20.5
443.8276,156.8
443.937,133.6
443.972,25.2
444.2941,85.4
444.3649,559.1
444.3948,112
444.7969,20.4
444.8194,236.7
444.8251,213.9
444.9111,548.9
445.0952,131.6
445.2329,793.8
445.2706,828.2
445.2926,101.4
445.3533,574.5
445.5628,23.4
445.6274,127.4
445.7613,177.1
445.8395,22.8
446.3118,761.3
446.6412,236.8
446.9849,245.8
447.0347,101.8
447.0957,122.6
447.6712,112.8
447.7142,119.2
447.8354,20.3
447.8516,264.2
447.9321,2408.4
448.1105,185.8
448.2709,135.2
448.3574,155.4
448.5454,106.4
448.8649,111.2
448.9323,2390.3
449.0756,170.1
449.1412,19
449.1542,2578.6
449.1879,97.4
449.2304,465
449.5225,714.3
449.5837,306.2
449.699,181
449.8068,437.8
449.9296,360.1
450.1574,522.7
450.2217,230
450.3907,581.1
450.7331,100.9
450.7566,190.8
450.771,143.8
450.9297,1418.2
451.1502,186
451.1998,602.3
451.2738,102.9
451.2991,145.2
451.3417,274.4
451.5371,222.6
451.6545,18.9
451.7702,22
451.8317,864.5
451.9107,571.1
452.0214,18.5
452.0298,197.1
452.0366,187.3
452.1536,21.8
452.18,108
452.2128,649.7
452.2228,321.4
452.4919,413.4
452.5258,22.7
452.6391,168.1
452.9526,191.2
452.9886,24.3
453.0669,169.3
453.6952,608.7
453.8419,20.2
453.9905,616.7
454.1589,171.5
454.2922,927.6
454.3331,160.5
454.3884,609.1
454.8639,646.7
454.9286,95.3
454.9368,24.2
454.9497,30191.2
455.2608,18.8
455.3376,119.9
455.3663,21.5
455.8761,702.5
455.9553,834.3
456.1662,911.4
456.2397,187.7
456.4385,151.9
456.6812,139.6
456.7003,432.8
456.8453,534.7
456.947,8139.2
456.9647,21.4
457.0568,879.5
457.1014,220.7
457.1147,98.8
457.2009,160.3
457.233,8031
457.2646,832.3
457.972,164.3
458.0869,335
458.187,114.3
458.2238,631
458.2392,684.7
458.4482,104.6
458.7152,244.7
458.8066,467.5
458.9609,1233.5
459.102,622.8
459.1274,108
459.1722,105.5
459.2485,420600.1
459.3924,151.2
459.9044,228
459.9693,141.8
460.0635,873.1
460.2518,86650.2
460.2872,568.9
460.4956,139.5
460.5765,618.5
460.8067,192.1
460.8652,280.8
460.9666,79418.6
461.0224,19.7
461.2277,637.3
461.2552,6910.8
461.3085,480.5
461.4753,825.5
461.4901,175.1
461.6492,271.5
461.7783,202.7
461.8332,534.2
461.9695,3971.3
462.043,1006.7
462.2092,93.5
462.2939,116.7
462.3477,614.4
462.6383,505.3
462.6557,711.3
462.7549,22.6
462.9637,20725.6
463.1323,850.6
463.308,182.7
463.3379,771.8
463.358,644.6
463.9059,936.1
463.9665,672.5
464.0147,801.6
464.2048,650.5
464.4315,208.4
464.9781,9770.9
464.9984,301.1
465.0941,539.6
465.2217,113.4
465.3577,123.2
465.5544,18.4
465.7654,112.5
465.902,148.2
466.2596,275.6
466.5915,19.4
466.7054,165
466.7297,599.5
467.4283,179.9
467.6135,262.5
467.8792,99
467.9953,288.4
468.2843,759
468.3084,3945.5
468.6791,332.5
468.7608,406.9
468.8245,150.8
468.8911,667.3
469.0436,972.1
469.2405,191.8
469.2849,100.3
469.31,161.2
469.4647,279.3
469.5603,498
469.6127,159.2
469.7732,513.2
470.1626,138.6
470.3379,24.7
470.3799,807.9
470.4926,122.2
470.6781,370.2
470.9237,15724
470.9822,428.7
470.9953,4497.1
471.2852,1077.4
471.3177,258.3
471.505,730.1
471.5135,140.7
471.5271,153.8
471.6165,190.6
471.7732,198.4
471.8584,101
471.9273,871
472.0263,154.7
472.1358,140.5
472.1528,113.3
472.8467,119.9
472.9207,4041.1
472.9614,180.6
472.9765,1525.8
472.997,438.2
473.0068,702.1
473.0193,317.2
473.0701,107.6
473.1488,196.3
473.1949,271.8
473.2647,1406.1
473.3218,215.5
473.3463,20.4
473.3967,442.3
473.5561,18
473.682,246
473.6942,92.7
474.0998,149.5
474.2355,623.6
474.5647,175.2
474.7141,107.4
474.753,18.7
474.7957,18.3
474.8601,286.7
474.9166,309.9
475.2224,30140.8
475.2666,142.2
475.3118,590.6
475.4861,455
475.6548,283.1
475.768,799.3
475.8669,132.7
476.0454,173.5
476.0897,28.2
476.2256,3678.4
476.4296,123.9
476.8384,235.2
476.9405,63514.8
476.9873,229.7
477.0677,471.9
477.4575,370
477.4713,19.2
477.5727,95.7
477.9438,3985.1
478.3293,51823.3
478.3918,545.4
478.4506,178.3
478.4901,203.5
478.5946,229.2
478.6259,349.3
478.7507,575.3
478.7608,122.5
478.9378,16338.4
479.0027,217.1
479.0963,66.1
479.1327,213.5
479.3323,11399
479.3868,99.1
479.4837,139.8
479.9423,420
480.0544,111.1
480.3351,247.7
480.4514,17.9
480.9223,163.9
480.9525,4468.4
480.9677,147.1
481.0746,144.6
481.0915,1782.6
481.1526,356.5
481.2331,1891.3
481.3426,166.7
481.3562,262.5
481.5673,116.1
482.0949,326.8
482.2095,554.3
482.2363,247.5
482.3241,1974.7
482.4827,21.9
482.4991,938.1
482.6355,154
482.7831,829
482.8438,818.6
483.0866,100.5
483.1124,175.4
483.1843,408.1
483.2127,192.4
483.2484,133129.7
483.2893,1081.1
483.3111,164.8
483.5053,82.1
483.6084,366.8
483.8999,687.3
483.9331,354.5
484.0112,226.9
484.1094,24
484.1796,148.9
484.2518,27484.3
484.3111,96.5
484.364,118.6
484.6192,171.3
484.66,458.2
484.8344,643.4
484.8629,149.8
485.0867,23.9
485.1254,20.8
485.1453,215.5
485.208,103.8
485.264,85559.6
485.5218,203.1
485.7391,90.6
485.8047,814.7
485.93,170.1
485.9861,143.4
486.0009,301.3
486.0122,108.1
486.2448,155.7
486.2673,17656.9
486.2814,97.8
486.4024,23
486.5341,817.9
486.6039,93.8
486.7558,17.6
486.7809,848.9
486.8074,553.8
486.8976,1405.4
486.9696,1534.2
487.2797,105137.9
487.3111,17.7
487.3396,593.8
487.3603,689.4
487.6736,205.3
487.9592,110.7
488.0837,523.5
488.1025,109.3
488.283,22536.5
488.336,408.3
488.5779,19.8
488.5917,19.4
488.8672,84.7
488.982,93.5
489.1423,86.5
489.2246,20.4
489.2458,802.8
489.2617,985.8
489.2696,438.3
489.2857,840.5
489.2949,297.1
489.3062,1371.2
489.3173,169.1
489.3368,154.1
489.3882,626.7
489.6742,251.2
489.9778,666.5
490.2287,359.3
490.2673,171
490.2905,5196.6
490.4116,269.6
490.6677,460.3
491.069,512.9
491.2953,1408.4
491.419,234.4
491.6303,21
491.9458,776
492.0822,868.4
492.1206,442.9
492.2488,337.1
492.4042,18.7
492.9143,14461.8
493.0845,627.5
493.1033,111.9
493.1266,823.1
493.1722,140
493.3018,181.5
493.8147,922.9
493.8594,171.7
493.9182,1009.6
493.9572,346.4
493.9833,193.8
494.0026,121
494.0975,481.7
494.2323,634.8
494.3247,8036.5
494.9118,3889
494.9627,125.1
495.078,749.5
495.1955,834.7
495.6005,113.5
495.8722,370.6
495.9336,17
496.2497,226.7
496.3399,563979.3
496.402,21.7
496.4816,347.4
496.7505,532
496.9312,1053.3
497.1247,178.6
497.2336,223.2
497.2669,106.6
497.3433,141273.6
497.5733,809.6
497.6892,418.1
497.7573,144.5
497.8852,125.4
498.2446,213
498.313,656.8
498.3463,11161.7
498.374,263.1
498.4743,93.4
498.9273,423.8
499.005,95.2
499.2225,7988.7
499.348,311.9
499.3627,172.5
499.4727,223.8
500.2262,558.1
500.249,369.3
500.8691,172
500.8873,270.6
500.9853,280
501.0391,446.4
501.2381,3653.1
501.2833,341
501.3352,18.8
501.6552,102.1
501.88,162.7
501.8977,176.3
502.2409,191
502.2941,796.6
502.3291,21594
502.3596,1015.1
502.5472,513.6
502.641,771.3
502.8091,657.6
502.8849,371.5
502.922,114.1
503.1079,133.5
503.2534,8063.7
503.271,187.2
503.3317,1183.8
503.4103,21.3
503.5138,413.2
503.5436,456.2
503.7125,219.3
503.9269,673.2
503.9482,738.2
504.1064,25.3
504.1189,810.9
504.2582,876.5
504.3063,3600.2
504.3449,4458.5
504.6769,548.6
505.0057,508.9
505.4018,138.8
505.6347,583.2
505.891,154.6
506.3605,4594.7
506.5193,180.4
506.7923,20.4
506.932,23.2
507.04,275.7
507.2483,25701.9
507.3766,568.9
507.7412,789.6
507.7739,18.8
507.8789,201.6
507.9824,86.1
508.0421,773.9
508.1558,185.9
508.2517,6575.2
508.302,165.8
508.3922,413.8
508.7002,652.8
508.7503,19.7
508.7674,226.2
508.8881,596.4
509.0048,3381.2
509.2637,8092.8
509.3201,20.6
509.6694,390.4
509.8559,131.2
509.9125,180
509.9331,180.3
510.0176,610.1
510.2673,694.7
510.3557,6406.6
510.4997,963.4
510.6521,130.5
511.1253,30.7
511.1852,102.1
511.3723,312.7
511.437,193
511.5238,591.3
512.1603,592.1
512.2474,782.8
512.4078,762.1
512.7116,165.9
512.9083,8317.7
513.0351,781.8
513.0767,558.4
513.1044,811.3
513.1202,369
513.5121,604.2
513.5595,147.2
513.7436,109.4
513.7723,246
513.8761,357
514.0344,504.5
514.0637,639.6
514.1565,116.7
514.3313,85.3
514.4263,317
514.4525,22.1
514.5622,152.1
514.78,19.6
514.7992,472.7
514.9042,4646.9
515.0191,145.6
515.0385,319
515.11,153.5
515.2295,24
515.2944,22.4
515.3675,482
515.4346,1107.6
516.3064,14234.7
516.3345,171.1
516.5963,217.6
516.6365,104.5
516.6555,397.1
516.8445,750.8
517.3002,129.3
517.3105,911.2
517.4086,301.9
517.7333,20.3
517.8965,138
517.9854,402.2
518.0428,190.8
518.2283,484
518.3039,642
518.3219,781341.8
518.9251,24854.9
519.0067,19.5
519.0326,100.1
519.3253,185973
519.5848,135.1
519.768,354.7
519.9278,743.2
520.2808,802.7
520.3399,167044
520.4561,722.7
520.7855,234.1
520.9223,15716.4
521.1986,126.5
521.3431,41445.4
521.6086,124.2
521.8163,256.3
521.9772,445.8
522.3555,116991.2
522.6269,135.4
522.7328,452.6
522.7972,121.6
522.8088,113.3
522.9031,833.2
522.9191,1770.8
522.9371,4179.8
522.9669,464.2
523.3589,28666
523.3802,254.2
523.7886,177.8
524.0632,687.4
524.0843,217.9
524.1048,545.1
524.126,1165.7
524.2496,116.5
524.3401,129.1
524.3712,188418.5
524.5249,453.4
524.5823,469.1
524.8275,561.5
524.933,537.1
524.9665,102.7
525.1712,599.5
525.2125,325.8
525.3746,47883.5
525.5689,170.4
525.6507,266.8
525.7738,938
526.2821,337.5
526.3159,113.9
526.3288,6230.8
526.3768,1082
526.62,1025.4
526.6969,533.8
527.0113,512.6
527.0419,150.4
527.0748,85.5
527.1102,152.7
527.4994,555.7
527.6206,431.3
527.7706,626.3
527.9448,121.6
528.0246,690.5
528.083,197.8
528.7321,186.2
528.7965,162.3
528.8823,5812.4
528.9539,2474
529.0303,242.1
529.1021,120.2
529.1849,24.2
529.3732,164.8
529.5578,861.7
529.5908,382.6
529.7267,803.9
530.1051,96.3
530.1216,161.6
530.321,682.5
530.3369,123.5
530.4647,304
530.5241,86.3
530.7212,109.8
530.8271,216.7
530.8798,2222.9
531.2202,4747.5
531.2488,3918.4
531.3395,83.8
531.5298,20.3
531.8216,161.6
531.9585,332.9
532.1611,117.2
532.2805,3605
532.2923,483.5
532.3377,7432.9
532.5482,820.8
532.6308,158.1
532.69,192.9
532.8719,337.7
532.9646,3238.8
533.0298,18.7
533.1589,416.7
533.1751,26.3
533.3275,127.3
533.7373,184.8
533.8187,110.8
533.9089,22.3
533.9724,108.7
534.2959,263759.1
534.4033,216.5
534.4216,294.3
534.5558,349.9
534.7815,283
534.8796,22.1
534.899,20809.8
535.1352,184.7
535.2277,255
535.2712,650.4
535.2991,60306.4
535.4253,586.4
535.4449,551.1
535.7196,102
535.7686,148.1
535.8127,99.7
535.8765,376.6
535.9015,685.4
535.9545,259.5
535.996,347.7
536.2942,13543.3
536.3197,112.7
536.516,468.6
536.5337,117.5
536.5769,111.9
536.6345,101.4
536.8964,14102.9
537.1519,149.6
537.2973,3609.9
537.3423,220.7
537.4097,377.2
537.4939,134.1
537.6501,224
537.731,180.8
537.7837,183.4
538.3613,376.7
538.3844,293.1
538.4909,144.1
538.6294,621.4
538.8925,2183.7
538.9112,2688.9
538.9303,541.6
538.9502,125.7
539.5285,765.7
539.6405,191.7
539.8907,168.7
540.2785,570.6
540.4335,572.4
540.4826,18.9
540.5784,510.2
540.7891,316.1
540.8016,144.3
540.9088,509.2
541.2686,113.7
541.3068,631.4
541.4025,208.1
541.4421,799.8
541.9221,736.7
542.3219,207015.6
542.4118,617.9
542.7697,326.3
542.811,154.5
542.9323,701.3
543.1445,759.8
543.3252,49533.3
543.5087,119.3
543.6233,157.8
543.7589,19.9
543.8103,523.2
543.9796,909.5
544.2732,1790.1
544.3378,156755.2
544.3733,86.6
544.7846,175.2
544.8442,912.3
544.857,720.5
544.8697,146.1
544.9274,1127.8
544.9479,2625.2
544.9806,198
545.0983,780.1
545.1074,207.9
545.3411,34762.2
545.3687,372.1
545.48,991
546.1675,102.4
546.3532,237368.7
546.3796,154
546.3905,256.7
546.6401,306.5
546.679,155.6
546.7039,188.5
546.7741,154.6
547.1325,766.9
547.2246,742
547.2843,650.8
547.3566,57928.6
547.9326,192.8
548.0151,606.7
548.2728,1009.4
548.3598,4751.5
548.3712,2319.5
548.823,128.2
549.0709,464.5
549.1065,129
549.1717,124.3
549.3423,92.9
549.6783,190.1
550.0559,202.5
550.3261,236
550.403,126.3
550.6698,726.5
550.8113,271.5
550.873,5911.2
551.2335,197.4
551.4697,281.7
551.4885,290.4
551.694,861
551.9459,400.3
552.266,665.5
552.3018,23.4
552.6148,131.8
552.8699,3621.7
553.2988,389.4
553.4869,883
553.6563,111.5
554.0359,180.6
554.1841,570.9
554.3662,731.7
554.3924,119.9
554.6412,19.8
554.8665,538.7
554.9147,200.4
555.321,145.8
555.3781,175.8
555.6095,147.6
555.689,475.7
555.8813,108.7
556.2717,708.8
556.2808,362.8
556.3578,604.6
556.596,440.2
556.702,248.5
557.04,99.9
557.3202,168.2
557.3494,271.8
557.4795,601.6
557.9917,82.5
558.0087,396.2
558.2959,78367.7
558.353,438.4
558.6746,214.3
559.0572,758
559.1114,495.2
559.2991,20585.7
559.4374,17.7
559.7322,24.4
559.8029,105.3
560.0481,795.5
560.0723,220.2
560.2235,149.1
560.2536,20.5
560.2951,1892.3
560.3115,56173.2
560.374,360.7
560.562,208.4
560.7389,811
560.9199,869.2
561.0271,156.9
561.1278,231.5
561.2431,331.4
561.2791,111.2
561.3149,11311.4
561.4128,1495.2
561.8418,889.3
562.2235,431.5
562.309,893.5
562.3272,68603.2
562.3574,132.9
562.5273,232.5
562.7012,893
562.8548,595.3
563.0204,145.7
563.129,141.3
563.3307,16150.6
563.359,421.2
563.4301,778.1
563.5283,494.4
563.537,564.6
563.6951,171.4
563.7987,18.8
563.9083,836.3
564.3265,3043.2
564.4885,322.4
564.6527,313.4
564.7092,550.2
564.8379,164.3
564.9343,1005.8
565.2488,363.5
565.4114,264.5
565.7673,17.7
565.975,245.1
566.0503,105.6
566.322,46684.1
566.3935,535.4
566.4624,431.7
566.7925,739
566.9204,320
566.9639,472
567.3253,11546
567.3916,102.7
567.6651,328.4
567.9205,90.6
568.2878,109.9
568.3379,17137.2
568.57,176.7
568.6032,114.4
568.8198,19.3
569.3403,2169.3
569.6916,693.7
569.935,91.7
570.0048,205.8
570.051,918.4
570.3547,1461.6
570.6897,765.3
570.7651,427.1
570.8677,1062.2
571.1462,129.4
571.5438,24.2
571.7348,471.6
572.3682,380.8
572.6501,620.6
572.8634,2248.1
572.891,126.6
572.9137,112.2
573.1067,140.9
573.2807,437.3
573.427,97.2
573.6385,606.6
573.6732,105.8
574.1246,172.4
574.2617,509.9
574.5188,201.4
574.5374,318
574.8593,474.3
575.0278,286.8
575.2625,155.7
575.4604,180.2
575.5036,8107.8
575.7629,19.2
575.872,802.8
575.9893,348.2
576.2805,8558.4
576.399,170.3
576.4308,25.1
576.5073,1894.6
576.6844,19.8
576.8839,6767.1
577.1063,744
577.4864,647.2
577.5195,530.3
577.7006,838.4
577.9855,127.5
578.0371,145.2
578.1676,802.9
578.2725,364.6
578.3703,138.5
578.4513,191.6
578.6782,255.1
578.7522,132.5
578.8814,7623
579.013,465.2
579.572,244.2
579.8717,361.1
579.8772,449.6
579.8832,413.4
580.0761,524.6
580.2729,293.3
580.3735,156.3
580.7912,245.4
580.8781,1490.1
580.897,577
581.0257,250.7
581.1444,299.6
581.6181,95
581.7752,106.8
581.9826,106.2
582.0239,469.4
582.1279,1045.8
582.1857,157.8
582.2362,731.5
582.2616,240.9
582.2959,13529.5
582.3274,1230.8
582.3344,1414.2
582.3594,1285.2
582.3894,383.5
582.4194,831.1
582.5252,19.8
582.6828,516.8
582.8931,540.4
582.9538,797.5
583.014,531
583.0883,175.9
583.241,21.3
583.2991,1365.5
583.5071,178.1
583.5386,176
583.5567,137.3
583.5841,127.6
583.9038,21.1
583.921,726
583.9373,869.7
583.9653,184.2
583.9941,241.9
584.3118,1859.7
584.5548,216.4
584.8716,207.3
584.8864,339.9
584.9042,407.3
584.9969,159.9
585.1626,469.6
585.2704,1183
585.3143,697.6
585.4106,288.4
585.4936,23
585.5976,109.9
585.8078,448.7
585.8485,19.5
586.1697,240.2
586.3096,3020.1
586.3574,124.9
586.4133,969.7
586.7211,165.9
586.7407,187.2
586.8099,18.2
586.84,1563.4
586.9123,2570.6
586.9859,604.1
587.0665,459.7
588.0132,394.7
588.1646,179.5
588.8374,2348.1
589.2104,779.2
589.3998,154.2
589.5622,900.8
589.8392,19.1
590.0105,189.3
590.0543,96.5
590.2906,93.7
590.3225,8350.9
590.877,184.8
591.0952,315.1
591.1743,91.9
591.3267,1181.5
591.3891,88.1
591.5871,458.9
591.84,396.1
591.9601,339.3
592.2155,181.1
592.2375,795.4
592.2547,2245
592.3404,366.7
592.3673,342.5
592.6453,651.5
592.6902,238.1
592.7006,1246.8
592.8009,893.2
592.8577,7498
593.0151,674.3
593.023,330.2
593.5199,147.1
593.5505,493.6
593.6764,755
593.8586,566.9
594.0484,325.2
594.2295,99.9
594.2652,93.8
594.3061,174.5
594.4849,667.5
594.6212,158.6
594.8548,6687.2
594.9534,1003.4
595.1742,176
595.3384,18.9
595.4042,541.1
596.1284,622.5
596.253,24.3
596.8517,1480
596.8699,1711.5
596.9402,692.2
597.0339,130.2
597.3499,401.4
597.4491,6636.3
597.4856,13070
597.5926,793.4
597.6634,451.7
597.7059,136.1
597.7694,141.9
597.7838,786.6
597.8159,258.3
598.0327,440.4
598.0373,474.6
598.0433,322.1
598.2611,189.4
598.4195,880.4
598.4566,2840.5
598.4921,1938.7
598.5158,180.4
598.845,812.8
599.05,497.4
599.468,1399.5
599.5032,391.5
599.6146,254.5
599.6197,245.4
599.6249,148.6
599.8502,404.3
600.2811,489.6
600.4707,124.9
600.4791,147.9
600.4971,455.2
600.5425,416.5
600.6079,147.2
600.6425,207.7
600.7728,1769.3
600.9843,126.2
601.0455,152.9
601.1121,420.8
601.1871,217
601.4372,329.7
601.4709,606.5
601.4812,104.7
601.5078,531.6
601.5214,1057
601.8921,106.5
602.336,19.6
602.5755,157.2
602.7715,123.6
602.8131,571.5
602.8869,1519.7
603.5318,116.1
603.8343,433.6
604.1099,273
604.1182,661.6
604.2145,894.1
604.3174,757.3
604.7513,802.5
604.7954,572.4
604.943,549
604.9978,504.2
605.1692,1027.3
605.3616,344.1
605.4846,1033.7
605.5983,696.6
605.6422,389.4
605.6626,109.6
605.7041,171.4
605.9466,111.7
606.0708,159.8
606.2961,2984.2
606.6263,148.9
606.744,898
607.1592,147.1
607.1697,331.8
607.2512,166.1
607.4131,343.5
607.4933,20.4
607.7704,326.1
607.7884,902.2
607.9943,171.6
608.3805,196.1
608.6312,19.2
608.6511,633.6
608.8319,2796.3
608.9103,116.3
608.9813,883.9
609.052,858.7
609.1734,232.9
609.2014,446.5
609.3247,1056.4
609.3849,400.6
609.5686,190.6
609.7684,114
610.0122,192.4
610.0684,387.4
610.298,180.3
610.6537,192.4
610.6863,926.1
610.7373,194.2
610.8292,3442.9
610.926,203.2
610.9915,171.3
611.0476,730.4
611.0563,295
611.2266,19
611.3352,192.9
611.6194,387.8
611.9286,487.2
612.2055,245.9
612.4454,20.1
612.7574,336.2
612.8644,973.3
612.9386,109.4
613.4178,92.5
614.0174,154.2
614.1604,358.4
614.2003,450.5
614.2083,437.3
614.2747,106.7
614.3538,419
614.4139,126.7
614.7852,20.5
614.8284,616.8
615.0527,173.1
615.1238,213.2
615.4626,170
615.914,157.8
616.0966,194.6
616.2163,498.2
616.4379,28.7
616.9753,288.2
617.4536,173.2
617.4759,15045.5
617.5024,599.3
617.5446,123
617.6884,17.6
617.9264,810.7
617.9616,201.9
617.9781,469.9
618.4799,3723.1
618.582,19.9
618.882,462.1
619.0304,178.1
619.4913,8516.6
619.6718,181.6
620.8458,150
620.8841,24.1
621.4272,235.5
621.4494,1773.6
621.4859,8311.1
622.1322,141.5
622.1938,18.4
622.3932,374.6
622.4075,852.8
622.4606,1001.4
622.6908,541.4
622.9489,344.9
622.9861,18.4
623.0911,664.3
623.1361,13440.3
623.5032,227.4
623.6057,18.3
623.9009,144.6
623.9518,556.3
624.0275,21.5
624.1397,990.5
624.5066,129.6
624.7245,440.7
624.8451,191.5
624.9849,20.6
625.0559,848.3
625.1402,132.7
625.4819,317.7
625.5576,139.8
625.6628,130.9
625.7044,563
625.9324,19.2
626.1169,592.3
626.2872,136.1
626.486,333.5
626.823,120.3
626.8858,164.8
626.9456,605.4
626.9777,771.6
627.0539,200.2
627.5323,180
628.2643,976.3
628.2895,589.6
628.3319,781.6
628.3524,507.8
628.6342,161.4
629.1529,26962.9
629.2098,271.6
629.253,418.2
629.8297,206.6
629.9902,166.7
630.1275,144.9
630.1563,3584.8
630.4424,825.1
630.9374,106.3
631.2197,167.7
631.2477,1001.5
631.3278,426.7
631.7653,114.5
631.9774,572.7
632.056,117.2
632.6151,252.1
633.2367,276.3
633.4393,896.5
633.7635,232.6
633.9592,210.5
634.1022,102.4
634.1438,18.6
634.1581,190.8
634.2022,311.4
634.3441,1044
634.4247,195
634.52,566.3
634.6511,18
634.8422,1828.5
635.3013,167.4
635.4241,18.4
635.464,482
635.4996,403.9
635.9992,152.9
636.0173,305.6
636.2534,110.7
636.272,704.1
636.2954,356.2
636.5562,675.1
636.8123,118.4
636.84,2985.4
637.1935,721.2
637.216,160
637.5328,985.5
637.7938,312.2
637.8786,137.1
638.0522,295.8
638.372,359.8
638.4732,119.8
638.5973,20
638.8366,720.2
639.1361,585.4
639.4997,310.6
639.694,188
639.8945,154.7
640.4448,577.1
640.4963,23.8
640.6503,1137.2
640.7382,212.5
641.0043,132.3
641.2432,93
641.4392,21.4
641.5173,125.1
641.5291,524.8
641.6269,114
641.6637,133.6
641.7864,21.4
641.8187,395
641.8557,263.1
642.0452,19.8
642.2238,192.7
642.2329,188.1
642.239,181.5
642.8084,113.4
643.1152,291.5
643.4516,935.6
643.5741,115.7
643.7419,834.2
644.1942,165.6
644.2812,86.8
644.6239,262.1
644.8706,503.1
644.8826,212.2
645.1178,12747.4
645.2449,1016.1
645.2954,668.2
645.3197,1852.1
645.4558,1382.5
645.4846,550.3
645.5084,152.8
645.66,187.6
646.0102,500.7
646.0384,100
646.1238,521.3
646.4297,1386
646.4632,849.5
647.0134,94.8
647.0694,359.9
647.0937,1329.9
647.1828,812
647.3353,251.5
647.4299,130.4
647.4412,758
647.5849,120.6
647.8565,284.6
647.997,157.6
648.1155,163.4
648.1846,1082.9
648.2229,24
648.3481,544.4
648.3849,440.2
648.6448,111.5
648.8695,182.7
649.6026,306.7
649.9596,24.2
650.2127,750
650.2586,144.5
650.4388,2906.5
650.7362,194.1
650.817,2730.2
650.8802,105.1
651.1347,38687.2
651.3969,474.7
651.4438,644.9
652.0085,678.5
652.1386,7395.7
652.2826,823
652.5964,775.3
652.814,3198.5
652.8385,420.9
652.8949,150.7
653.0682,103.2
653.1357,173.9
653.6795,102.4
653.8888,123.9
654.3246,132.3
654.4006,424.2
654.5048,187.3
654.6664,844.3
654.8102,1316.7
654.9536,345.3
655.1246,215.2
655.3458,467.3
655.3959,129.8
655.4486,221.3
655.5517,117.7
655.6602,156.8
655.7915,222.6
656.3317,180.3
656.5051,269.4
656.6223,561.8
656.8409,18.1
656.8667,764.8
657.7226,23.7
657.8806,254.9
657.9799,103.2
658.0861,404.6
658.4175,151.4
658.6856,819.6
658.8439,818.2
658.9294,814.9
659.1071,166.5
659.3791,18.3
659.4417,1127.6
659.4967,791.5
659.56,1024.6
659.7297,608.4
659.9711,950.6
660.0314,153.8
660.0819,1963.8
660.4348,142.9
660.5018,261.1
660.5639,135.9
660.6965,396.9
660.7629,192.5
660.7914,170
660.8405,145.4
661.0828,4327.1
661.4171,262.7
661.4702,1347
661.6827,181.4
662.3207,398.3
662.3287,350
662.5839,129.6
662.7457,1007
662.7504,956.1
663.4525,717.9
663.6355,16.4
663.7859,263.5
663.8454,429.9
664.1142,111.1
664.1944,116
664.3396,330.2
664.4681,2475.8
664.5601,199.3
664.6342,141.7
665.038,164.9
665.3443,204.3
665.5051,171.6
666.0864,877.1
666.2713,183.4
666.4839,7221.4
666.6447,255.8
666.6835,164.1
666.7891,755.1
666.9688,279.4
667.0998,22766.6
667.4877,1061.3
667.6575,419.8
668.1042,1150.6
668.3396,233.4
668.4067,143.7
668.7878,837
668.9651,88.8
668.9764,239.7
669.0031,93.1
669.8922,363.4
669.9262,97.9
670.1431,215.4
670.7843,391
670.9802,95
670.9899,85.9
671.0925,210.3
671.3136,620.7
671.3839,126.9
671.9203,215.9
672.0491,154.6
672.0902,268.1
672.4213,2842.1
672.4479,469.7
672.57,294.1
673.1167,56198.9
673.3105,280.8
673.371,234.3
673.7515,383.5
674.0367,790
674.054,271.8
674.1202,10447.9
674.4873,1076.6
674.6393,586.3
675.1232,260.2
675.4425,231.1
675.5439,17799.2
675.6222,447.7
675.6747,257.4
676.0471,3263.4
676.4469,20.2
676.459,373.7
676.4828,299.4
676.5473,3417.8
676.692,213.8
676.7493,778.8
676.8244,20.5
677.0084,475.8
677.0526,204.6
677.2708,233.5
677.7435,319.2
677.9037,289.7
678.6912,772.9
679.0139,432.3
679.0803,223.8
679.4092,20.8
679.5049,843.6
679.5788,119.8
679.8974,195.4
679.9156,151.7
680.2584,209
680.2903,656
680.331,280.8
680.4875,565
680.5198,116.4
680.5941,391.5
680.9835,97.1
681.0653,551.8
681.1303,115.2
681.3115,775.1
681.5713,226.7
681.746,103
682.0643,9704.2
683.0052,19.5
683.0648,6146.2
683.1443,415
683.4431,805.8
683.855,253.6
683.8986,178.4
683.9838,161.9
684.2098,133.8
684.3425,100.9
684.6223,189
684.6275,208.3
684.6368,146.3
684.8453,245.2
684.9336,753.1
685.0615,108.9
685.2052,954
685.3809,343
685.4365,6703
685.6727,116.5
685.7385,223.5
686.44,755.6
686.9456,17.9
687.7703,156.9
687.8299,233.1
687.9842,20.3
688.1848,899.7
688.4135,1369.2
688.7847,592.1
689.0252,457.1
689.0815,19638.2
689.0904,18799.7
689.1337,113.3
689.5035,130.5
689.56,2993.6
689.5843,549.9
689.7199,194.5
690.093,1450.9
690.5634,1220.8
691.2938,230
691.332,20.6
691.3826,376.6
691.4007,343.6
691.4958,280
691.9476,1362.2
692.0204,100.6
692.3302,390.3
692.5778,110.6
692.8026,465.1
693.0538,19.8
693.181,363.4
693.9002,126.8
694.1158,183.1
694.798,621.4
695.0987,40310.2
695.1809,648.8
695.3673,476.5
695.4008,563.7
695.5078,977.2
696.0677,350.9
696.1024,7934.6
696.3717,901.1
696.545,19.5
696.7961,553.8
697.2097,343.2
697.4526,119.3
697.5256,20136.6
697.7183,119.1
697.8361,132.7
697.9098,212.9
698.0284,1590.4
698.3242,548.7
698.5293,5108.5
698.5686,556.8
698.5962,309.1
698.7873,494.4
698.8219,131.3
698.8673,776.8
699.2234,18.1
699.7645,159.3
699.8948,158.5
700.0302,181
700.0517,425.9
700.1193,124.9
700.5405,334.2
700.6229,193.6
700.7828,146
701.0485,977
701.087,189.3
701.34,83.9
701.4101,278.1
701.5598,41280.2
701.858,136.3
702.2706,898.9
702.3431,4481.5
702.4198,350.9
702.5306,18.9
702.5628,14519.3
702.6524,248.5
703.1447,948.6
703.3442,1234.1
703.366,149.1
703.3915,523.1
703.5754,131312.8
703.6094,262.4
703.7878,285.3
703.818,103.3
703.9502,118.5
704.0465,7249.4
704.4171,395
704.4476,2961.8
704.5787,46047.4
704.7761,229.1
704.8761,295.9
704.9756,257.2
705.056,5528
705.5813,4535.3
705.6356,662.5
706.2425,201.9
706.5389,3920.2
706.5815,174.8
706.8718,218.7
706.9142,773.7
707.0504,346.8
707.1868,515
707.4302,113.3
707.5415,733.8
708.0394,196.4
708.1167,112.4
708.5253,872.3
708.9993,109.2
709.0491,151.5
709.0699,198.4
709.203,20.6
709.3207,940.2
709.3356,417.4
709.6521,96.3
709.8345,877.9
710.0425,1152.9
710.2875,301.3
710.328,126.8
710.3945,20.3
710.77,1204.5
710.8022,640
710.8385,100.9
711.0734,18917.8
711.182,255.1
711.5424,5066.4
711.8203,642.8
712.077,1772.8
712.4548,875.1
712.5439,1140.4
712.6387,138
712.7333,217.5
712.8394,135
713.0006,95.4
713.0698,126.5
713.1749,464.9
713.5009,3231.7
714.1181,234.3
714.2504,246.3
714.3198,159.7
714.4533,1762.7
714.4846,22.6
714.9698,334.9
715.1511,195.6
715.48,525.5
715.8343,195.7
716.2166,19.4
716.3193,20
716.3866,158
716.5001,24.4
716.9018,222.5
716.9907,154.6
717.0806,20793.2
717.2834,93.2
717.5942,779.1
717.9008,521.5
717.9631,114.1
718.0841,1909.6
718.2744,177.3
718.5169,203.9
719.0876,168.5
719.1048,379.3
719.1485,930.8
719.1711,227.6
719.4122,911.7
719.4645,935.9
719.5068,187.3
720.022,2699.2
720.0824,191.9
720.5119,183.2
721.4783,69469.1
722.0335,126.1
722.0958,248.1
722.4816,24706.5
722.6207,288.5
723.3799,181.3
723.4952,6338.8
723.5417,35119.6
723.7398,348.1
723.9832,714.5
724.071,103.2
724.4283,127.1
724.4952,224.8
724.5453,12820.5
724.8484,288.8
725.0678,264.2
725.1575,20.4
725.5576,98490.5
725.5823,145.3
725.6304,437.4
725.7083,135.1
725.8025,715.6
726.028,3166.2
726.129,364.5
726.1577,268
726.2171,158.8
726.299,151.9
726.5609,36794.8
727.0314,3878.6
727.563,6577.4
727.7126,800.2
727.7285,154.2
727.8877,834.6
728.2546,389.7
728.5197,5339.5
728.6876,435.1
728.7699,254.3
728.7867,361.3
728.8487,313.4
729.0119,853
729.0412,267.1
729.3441,117.8
729.5916,9629.5
729.8784,202.8
730.0101,174.5
730.5385,16137.7
730.5932,742.6
731.096,306.8
731.1464,250.6
731.2281,408.1
731.2885,645.5
731.3092,182.9
731.4829,726.1
731.5444,1428.2
731.6066,7128.9
731.7659,93.9
731.9221,300.9
732.5545,50501.4
732.6111,1191.9
733.0557,11418.5
733.2186,447.5
733.5578,19936
733.6808,383.8
733.7714,1214.8
734.0585,613.1
734.0955,133.7
734.175,628.9
734.2338,467.7
734.5705,5831.9
734.6499,97.5
734.7944,720.6
734.9765,842.1
735.3414,1033.8
735.5415,180.5
735.5736,1969.9
735.6748,528.8
735.9883,128.8
736.0487,786.2
736.209,18.6
736.3816,742.4
736.4342,17.8
736.5741,335.5
736.6511,257.5
736.7289,92.1
737.174,83.4
737.4523,17019.5
737.8164,1032.3
737.9188,19.5
737.9838,142.5
737.9992,177.7
738.1978,686.1
738.2284,725
738.3737,241.9
738.4563,5426
738.4849,663.1
738.5372,137.3
738.6183,247.2
738.691,798.5
738.9782,24.5
739.0287,1208.4
739.063,11994.1
739.4686,605.4
739.5161,5278.3
739.5414,1028.1
739.5879,124.4
739.6972,604
740.028,438.4
740.066,876.2
740.4708,1022.3
740.5159,1930
740.7947,211.3
741.0237,1051.7
741.1035,94
741.1336,172.3
741.3406,20.9
741.5314,16000.4
741.674,18.6
741.7418,143.9
742.004,1306.4
742.468,362
742.5351,7312.5
742.575,16639.5
742.7472,140.2
742.8839,88.6
742.9088,225
742.9905,514.7
743.1668,174.1
743.3434,170.8
743.4628,876.3
743.4967,372
743.5777,4243.3
743.6649,137.3
743.7191,153.8
743.8513,782.7
744.0162,107.2
744.4631,1201.6
744.554,7227.5
744.5915,9395.1
745.3894,133.3
745.4783,38443.6
745.5586,2970.1
745.5948,3093.5
745.7903,114.9
745.9326,175.2
746.0343,142.1
746.0968,883.7
746.4125,351.4
746.482,10827.2
746.5105,187.1
746.5711,2008.9
746.6076,2048
746.9612,146.1
747.0032,796.2
747.0553,459.6
747.0958,732
747.4067,377.5
747.4566,418.3
747.4935,7906.5
747.5698,22.1
747.6081,267.7
748.009,2187.1
748.1017,301.3
748.2591,873.2
748.3058,893.9
748.4467,154.8
748.7212,172.8
748.9291,173.1
749.0312,1816.2
749.1097,509.4
749.1596,355.8
749.2885,518.5
749.5094,5286.7
749.6651,222.3
749.7385,375.2
750.0275,115.2
750.0815,102.9
750.2282,318.9
750.5114,486.9
750.6914,487.2
750.8924,212.3
751.0226,113.6
751.3935,1061.9
751.43,873.6
751.5388,313.9
751.5729,6470
751.7287,112.2
751.8146,658.5
752.0527,258.5
752.4269,317.6
752.5206,11599.3
752.5653,1146.2
752.6962,354.1
752.7452,283.8
752.7888,310.8
753.5027,971.5
753.5236,4432.9
753.5897,1652.6
753.6118,526.4
754.2662,181.4
754.35,781
754.4092,1348.5
754.5369,39190
754.6304,96.8
754.7793,598.6
755.0375,5672.3
755.2671,128.2
755.4158,201.4
755.5399,13764.1
755.8671,605.9
756.0166,17.5
756.0666,807.3
756.1583,982.1
756.2157,172.8
756.3748,714.8
756.5543,57017.3
756.9329,285.7
757.4223,161.8
757.5574,22331.8
757.6227,1302.7
757.8167,147.9
758.0247,193.6
758.0864,130.9
758.2147,132.8
758.2557,105.7
758.4012,1182.5
758.5701,1533122.9
758.6216,702.2
758.9678,463.7
759.1285,108.3
759.1957,192.6
759.3286,106.6
759.4624,121.1
759.5734,675689.8
759.6396,569.3
759.9691,162.7
760.002,410
760.0214,18.3
760.3209,537
760.4854,138
760.537,1128.9
760.5872,340162.3
760.8166,190
760.844,98.2
760.9869,167.5
761.0454,3320.4
761.4499,5146.9
761.5896,169376.6
761.8363,906.8
762.0443,325.1
762.0901,154
762.1391,19.7
762.237,963.2
762.4562,1857.7
762.48,158.5
762.5194,335.3
762.5926,40661
762.7558,278
762.7963,1096.7
763.4684,343.6
763.5144,356.6
763.5949,2674.7
763.8184,130.5
763.9692,102.9
764.1839,363.3
764.4661,835.5
764.5579,8085.5
764.9777,697.2
765.0344,204.6
765.2123,118.7
765.4816,771.2
765.5581,377.6
765.8989,645.1
765.9925,92.2
766.2211,649.3
766.3201,141.3
766.4041,189
766.5363,6088.3
766.5748,47925.9
766.7281,312.3
767.0062,250.8
767.036,531.8
767.1399,233.2
767.1737,863.9
767.2043,502.8
767.2739,138.9
767.4363,783.8
767.5783,20700.4
767.6368,1120.8
767.7622,196.5
768.0223,235.9
768.0796,138.1
768.5544,2060.4
768.5914,51554
769.1523,830.2
769.4786,7441.7
769.5054,154.4
769.5545,2075.9
769.5942,21307.7
769.9804,124.3
770.0926,729.3
770.1127,394.5
770.3319,1001
770.4816,936.1
770.5094,4638.3
770.5664,539.2
770.6082,4225.1
770.9919,4594
771.0149,487.8
771.093,921.7
771.3637,640.3
771.3874,110.2
771.4062,20.3
771.4276,207.9
771.4951,798.9
771.5134,1721.8
771.9745,458.7
772.1053,784
772.321,436.1
772.5286,142.3
772.5858,11869.5
772.6432,224
772.6704,187.5
772.9478,1527.1
773.154,463.2
773.4192,134.1
773.5101,721.1
773.5884,4194.1
773.6719,168.1
773.9377,90.7
774.2427,398.5
774.5294,305.2
774.5994,130.4
774.7345,169.4
774.7598,104.3
774.8029,313.2
774.8889,106.7
775.0135,213.8
775.5245,386.6
775.7627,116.4
775.9105,719.6
776.085,146.4
776.4437,185.3
776.5197,3607.7
776.5419,337.9
776.681,145.4
776.7555,118.9
777.0077,3512
777.0449,1054.3
777.3392,1469.8
777.3923,272.6
777.4194,121
777.525,1578.3
777.5431,1990.7
777.9528,393.6
778.0481,2067.6
778.3986,655.6
778.5369,34070.8
778.8286,297.3
778.864,1972.5
779.0356,703.3
779.5397,7418.5
779.7888,254.8
780.0833,645.8
780.4724,622
780.5521,920591.4
781.0974,1171.5
781.2586,120.6
781.324,172.4
781.5556,406829
781.6233,176.3
781.7591,827.3
781.8852,775.6
782.3499,1832.7
782.5699,886502.7
782.6732,648.7
782.7324,236
783.0275,4700
783.1527,872.9
783.1823,466.3
783.5732,414612.4
783.7265,459.5
783.8213,613
784.5868,311734.3
784.9305,586.7
785.1632,113.3
785.2566,18
785.4198,341.8
785.5235,161.7
785.5895,163660.4
785.6539,4866.1
785.808,790.8
785.8317,739.3
785.9715,20.5
786.6019,348784.1
786.6558,213
786.763,19.5
786.8281,133.1
786.9379,719.4
786.9682,765.8
787.5495,120.9
787.605,176170.2
787.6696,762.7
787.9148,20.3
787.9686,18.9
788.1116,2047.3
788.3553,550.4
788.557,19163
788.6056,29099.4
788.6218,8943.9
788.6725,454.2
788.8681,413.5
789.2089,397.2
789.5611,9148.1
789.622,5885.4
790.0046,102.1
790.2116,196.4
790.3502,17.6
790.3872,194.6
790.4044,769.6
790.4619,139.8
790.5736,27796
790.6246,710.7
791.2547,135.2
791.577,10321
791.7493,959.7
791.8915,323.3
792.5437,335.1
792.5907,19542.4
792.9533,390.5
792.9832,1674.3
793.1779,156.5
793.2114,340.2
793.2526,889
793.5948,6212.7
793.8097,344.2
794.5101,5678.4
794.5705,1463.5
794.6068,42461.7
794.9848,2032.9
795.1248,112.2
795.5147,2248.1
795.6098,19885.2
796.1783,185.8
796.3553,488.6
796.526,210052.4
796.586,4657
796.6241,4441.8
796.8377,644.7
797.3475,106.9
797.4263,579.3
797.5294,97002.7
797.5829,679
797.6291,1491.3
797.713,1027.9
797.8544,24.2
797.9344,239.3
798.5193,2828.1
798.5435,37339.1
798.5984,147.1
798.6836,1681.9
798.9999,1070.9
799.1623,904.3
799.5455,16723
799.6078,602.3
799.6517,18.3
799.6705,365.4
799.8049,1190.5
800.4951,708.7
800.9175,177.7
801.0034,915.3
801.0407,1441.9
801.1275,3564.1
801.5395,943.1
802.0414,732.3
802.3038,98.5
802.5365,31075.4
802.6794,195.3
803.0378,146.6
803.1331,268.7
803.3165,812.4
803.4194,536.8
803.5096,122.5
803.5402,9750.2
803.7227,796.3
804.5522,426199.5
804.9388,1206.6
805.2857,553
805.4719,113.2
805.5555,202870.5
805.7465,880.1
805.9336,525.4
806.5697,376287.8
807.1228,201.6
807.3255,141.8
807.3627,1504.4
807.5728,182064.1
807.6365,1658.2
808.5852,226906.7
808.9722,348.4
809.0252,186.5
809.5881,110309.1
809.8512,306.5
810.4659,336.2
810.5342,561.2
810.6019,188987.9
811.143,18.4
811.5172,164.3
811.605,95311.5
811.6318,1317.1
811.6698,7218
811.9366,964.6
812.0939,262.4
812.2517,703.6
812.5579,109.5
812.6194,36906.1
812.6726,3118.7
812.9993,133.7
813.0329,142.1
813.2247,172.2
813.2643,529.1
813.6213,19369.6
813.6857,5810.3
814.5726,3228.8
814.6212,1173.1
814.6876,1610.1
815.4119,774.3
815.5781,839.6
815.9102,592
816.0593,689.7
816.2187,269.3
816.3011,19.1
816.5888,16932.3
816.7473,275.2
816.8228,21.7
817.294,983
817.4082,91.2
817.4296,131.3
817.4554,631.6
817.5916,3000.6
818.1952,609.2
818.2193,157.6
818.5101,4625.3
818.5662,819
818.6075,727.4
818.6655,1370
819.4224,1030.9
819.6097,428.8
819.9893,746.6
820.0352,465.4
820.5261,105794.6
820.5856,94.2
820.8085,487.4
820.8333,828.5
821.5294,49812.4
821.7047,107
822.0024,366.7
822.0335,135.3
822.0668,198.5
822.2616,755.3
822.5431,37410.8
822.6057,375.7
822.9734,114.5
823.3748,883.3
823.545,18431.2
824.1064,919
824.2144,318.7
824.3517,111.4
824.5579,38941.6
824.9989,1017.7
825.1023,662.3
825.3222,111.1
825.4423,1039.7
825.5612,12073.5
825.8344,145.8
826.144,926.3
826.1833,136.9
826.2855,709.2
826.4699,1828.8
826.6086,152.6
826.8365,210.5
826.9602,298.9
827.3249,463.2
827.5621,855
827.7009,854.6
828.3055,433.7
828.3931,795.1
828.4226,175.8
828.5026,683.6
828.5521,130660.7
828.7925,101.3
828.9089,221.3
829.4417,1167.8
829.4993,802.6
829.5553,59954.5
829.6951,456.6
829.8147,2233.6
829.9534,733.6
830.0184,111
830.0552,704.9
830.1932,124
830.5691,49281.5
831.3634,188.9
831.5366,156
831.5717,21873
831.9269,142.3
832.3235,840.9
832.357,234.4
832.3936,605
832.5841,90494.3
832.776,784.5
833.0105,187.6
833.3952,176.4
833.5871,43866.1
833.6498,703.8
833.6853,746.1
833.8462,769.5
834.506,1404.4
834.5152,1396.1
834.6018,48849.2
834.802,248.6
834.9495,962.2
835.0396,697.3
835.372,130.6
835.6048,23763.7
835.67,947.3
835.7099,172.1
835.7447,665.6
835.8006,379
836.0253,147.5
836.1085,170.3
836.1963,591.3
836.3088,156.4
836.6185,1880.7
836.8885,153.1
836.9194,224.7
837.0137,215.2
837.1321,386.5
837.2117,155.7
837.3586,121.8
837.6184,343.7
837.8889,23.2
838.0403,817.9
838.1286,1990.7
838.5114,2505.8
838.8912,903
838.9436,178.9
839.4566,262.6
839.6305,108.3
839.7823,20.7
840.501,688.3
840.5308,1402.9
840.5638,1782.3
840.8304,969.1
840.8709,441.6
840.921,169
841.0897,919.3
841.4411,870.6
841.5534,2140.9
842.5155,277.2
842.9507,1554.1
843.0009,176.6
843.144,124.3
843.1693,157.5
843.2623,22
843.522,133.8
843.5688,2029.2
843.6811,537.6
843.8308,601.2
844.158,853.7
844.4708,809
844.526,30682.8
844.5814,671.1
844.8305,233.5
844.9469,290.1
845.1853,511.3
845.53,9139.4
845.784,1071.1
845.9484,176.1
846.0499,179.6
846.4487,164.1
846.5433,5619.3
846.6383,180.8
846.6575,208.4
847.0538,152.3
847.0919,177
847.5422,1951.8
847.9723,1085.2
848.1081,216.2
848.4372,1224.1
848.5572,16257
848.7043,554.3
849.227,296.7
849.3591,1465.2
849.5597,2876.6
850.1819,1381.5
850.2145,832.2
850.2446,1059
850.4645,164.3
850.578,154
850.8267,460.8
850.9911,204.7
851.0686,342.7
851.1889,249.7
851.7946,861.3
851.8541,877.1
852.073,627.5
852.8085,88
852.8544,398.6
852.9899,162.9
853.1494,1647.4
853.3007,1428.1
853.3394,766.2
853.4379,889.6
853.7338,918.8
853.7774,107.9
853.9016,1174.4
854.1745,1212.1
854.2161,184.7
854.2553,114.7
854.5677,918.2
855.5291,1147
855.608,160.3
855.7338,365.7
855.9839,101.8
856.1475,630.6
856.5842,10631.6
856.6649,168.6
857.114,235.2
857.5866,2877.7
857.6092,537
857.7142,858
858.0789,372.5
858.8695,761.4
859.4147,629.9
859.476,787.5
859.6564,1103.7
859.7045,1645.4
860.1495,94.1
860.7304,279.8
861.3228,733.5
861.4023,1035.3
861.9283,1593.1
861.9918,135.5
862.6071,593.6
862.8189,255.8
863.9363,657.3
864.0304,566.7
864.137,258.9
864.156,369.3
864.3494,305.3
864.904,167.6
865.1364,1315.8
865.3022,1864.4
865.6703,1670.2
865.8642,770.4
866.0859,165.3
866.1835,327.4
866.465,552.5
866.7018,1428.6
867.0899,106.7
868.2286,3374.2
868.3581,184.2
868.637,1184.4
869.0806,282.3
869.2272,207.7
869.355,699.7
869.3957,2775.8
869.4807,163.1
869.5374,1129.3
869.5841,604.6
869.6101,799.2
869.6664,961
869.6988,1296.6
869.7324,792.8
869.7604,2078
869.819,4493.4
869.8829,4238.5
869.923,4522
869.9656,2673
870.0265,665.1
870.0515,1080.8
870.1326,907
870.1691,461.9
870.269,158
871.0385,689.3
871.1038,128.9
871.6201,865.9
871.8273,1391.5
872.0028,20.1
872.3047,94.2
872.4141,1050.3
872.4392,731.1
872.4748,334
872.5621,941.5
872.9954,273.5
873.0441,248.7
873.4115,118.7
873.5226,697.6
873.6182,678.2
873.952,160.9
873.9853,154.1
874.0365,18.1
874.0722,167.4
874.4067,675.8
874.5174,758.4
874.5749,914.4
874.7357,1628.9
874.8303,129.9
874.9764,125.1
875.1763,178
875.3338,923.7
875.8746,1419.9
875.9845,451.5
876.0558,207.2
876.1315,143.7
876.8325,1204
877.6733,1673.5
877.71,344.6
877.7831,20
877.8226,162.7
877.8888,262.5
878.2812,853.1
878.415,100.8
878.5811,1607.1
878.6526,805.6
879.0951,178.8
879.4514,22
879.5248,864.2
879.69,1379
879.7241,466.5
879.9477,690.8
880.5121,667.7
880.643,331
880.6749,173.2
880.7097,123.3
880.9368,113.8
881.2777,789.6
881.463,1170.3
881.5,618
881.6231,253.3
881.6992,164.7
881.7469,20.2
881.7723,803.1
882.0298,739.2
882.1144,19
882.4946,173.9
883.2126,356.4
883.4479,672.3
884.0165,767.9
884.0478,696.8
884.1433,291.3
884.2304,1059.7
885.7695,375.3
885.8125,106.6
885.9044,796.5
885.9537,328.1
886.6389,208.3
887.0388,170.7
887.1898,1218.4
887.354,141.6
887.4101,393.3
887.6552,20
888.6407,674.1
888.6566,272.1
888.7052,2192.4
888.8944,769.5
889.0618,866.2
889.3196,351.2
889.3448,747.3
889.7174,369.6
889.9992,1780.5
890.1852,482.7
890.6638,883.7
890.7411,142.1
890.8201,2515
890.9389,470.3
890.9721,323.9
891.0285,154.2
891.7747,1427.5
892.7941,381.7
893.1095,166.6
893.1764,110.3
893.4075,1134.1
893.5815,1153.9
893.7229,465.2
894.036,626
894.7745,1215.3
894.9166,139.3
894.9892,377.1
895.2169,147.4
895.5918,278.3
896.0818,534.1
896.1225,801.7
896.2814,1110.1
896.3553,627.9
896.3705,635
897.0077,642.1
897.1053,553.6
897.8435,433.5
897.8963,568.9
898.2168,639.9
898.2888,180.7
898.6717,2250.1
898.998,665.2
899.2486,1321.9
899.732,540.6
899.9285,2397.7
900.1031,665
900.7271,728.8
900.8399,346
901.2247,112.7
901.2773,21.9
901.4053,2040.7
901.4749,653.9
901.7269,388
901.8428,325.8
902.0841,559.7
902.1283,112.2
902.1866,500.2
902.4671,779.7
902.6682,140
902.7205,957.3
902.966,1516
903.416,575.5
904.1233,935.3
904.2914,239.5
904.4156,497.4
904.766,836.8
904.8972,1615.4
905.294,205.8
905.5703,346.3
905.6379,774.3
905.6843,1164.2
905.7623,340.3
905.9942,104
906.1232,108.2
906.2315,174.9
906.28,2732
906.4568,141.5
906.7032,2972.9
906.8349,775.9
907.3686,1332.9
907.4619,1132.8
907.4764,1501.6
907.5397,110.3
907.6149,951.6
907.7694,1094
908.3671,2059.5
908.6774,106.9
908.9166,2195.1
908.9634,186.9
909.0976,970.7
909.314,2595
909.5174,710.5
909.7131,741.2
909.7594,1067
910.492,126.6
910.5428,2090.7
910.7527,1814.8
910.919,3023
911.1891,189.4
911.7254,1205.4
912.049,171.1
912.2693,682.7
912.4849,183.3
912.9024,256.3
913.3989,889.6
913.482,103.7
913.7949,132.1
913.814,154.1
914.0237,120.9
914.0975,354.5
914.2192,234.3
914.5558,349.8
914.655,452.1
914.7917,18.6
915.0631,546.2
915.3343,142.7
915.3787,830.7
915.4615,298.5
915.5325,906.4
915.8572,282.5
916.0658,304.3
916.1793,422.1
916.5782,1506.4
916.7476,19.1
916.9625,129.6
917.842,911.1
917.8679,943.7
918.1286,22.1
918.3366,21.5
918.4983,21
918.5558,141.4
918.7222,777.8
919.1641,545.5
919.3061,579.9
919.3543,405.1
919.4139,330.3
919.6421,793.4
919.8687,143
919.9896,161.4
920.9378,2532.7
921.0469,759.2
921.111,218.5
921.2732,955.2
921.3041,782.6
921.4251,2703.8
921.5754,23
921.6836,87.9
921.8814,1671.6
922.1799,218.8
922.3561,161.4
922.3938,744.1
922.5308,1310.3
923.6853,665.7
924.0526,165.6
924.0777,481.1
924.1836,276.4
924.3236,636.8
924.422,208
924.7535,1056.7
925.2148,1380.4
925.2613,365.1
925.293,140
925.3277,855.5
925.5966,159.5
925.7252,892.1
925.9047,20
926.3969,129
926.4904,454.7
926.5175,122.2
926.5578,19.6
926.5952,147.2
926.7868,106.4
927.0166,18.6
927.2793,790.3
927.5274,94.7
927.918,17.8
928.0416,415.2
928.2646,137.6
928.367,1054.3
928.4729,1179.9
928.6264,1923
928.828,361.1
929.0132,166.2
929.0793,387.9
929.835,717.9
929.8583,21.8
930.1646,124.2
930.2703,1085.5
930.7306,1073.1
930.9557,156.8
931.0812,17.6
931.2467,411.9
931.8108,162.2
931.9165,336.9
931.9932,767.3
932.0245,266.4
932.3016,168.7
932.7767,20.4
933.1866,218.5
934.4961,1755.1
934.7076,253.8
935.0438,781.1
935.5032,879.4
935.5763,1327.9
936.0546,145.9
936.2425,177.1
936.545,804.7
936.7986,630.4
937.217,1402.1
937.3556,147
937.4239,349
937.4545,2324
937.5812,2053.6
938.0524,114.8
938.5186,20.3
938.6518,22.7
939.0092,872.5
939.0375,106.2
939.5995,415.9
940.117,91.2
940.4364,135.4
940.8955,405.9
941.2873,19.4
941.4926,2270.1
941.6123,394.9
941.8438,377.8
942.3427,938.9
942.526,296
942.6162,159.5
942.6335,161.3
942.7615,219.4
942.8867,483.4
943.0802,19.3
943.3649,179.1
943.4541,109.9
944.0079,19.2
944.5522,1016.4
944.7838,2421.3
945.0981,966.7
945.1594,102.4
945.4264,886.1
945.627,931.9
945.692,237
945.8092,492.9
945.9416,1524.2
946.0206,740.2
946.1619,324.5
946.6546,25.9
946.7714,156.1
947.4033,766.5
947.4515,734.9
947.5722,919.7
947.6559,896.2
947.6793,284.7
947.8501,200.1
947.9799,906.2
948.0803,3211.6
948.1582,1376.1
948.6584,953.9
949.2516,166.4
949.3106,269.5
949.4364,194.1
949.4813,141.1
949.547,2610.5
949.9512,396.4
950.1959,1128.3
950.2901,452.4
950.3702,222.9
950.5293,909
950.6707,721.9
951.0743,248.5
951.3374,142.9
951.4748,638.9
952.1664,127.5
952.2539,635.7
952.3064,652.5
952.6107,178.8
952.8851,1560.9
953.2364,371.5
953.3327,300.5
954.1898,166.2
954.2408,97.9
954.2849,306.6
954.314,130.5
954.4221,19.2
954.8471,183.7
955.3374,1131.2
955.447,177.1
955.5492,187
956.0032,1956.8
956.415,1314.8
956.613,1089.3
956.8402,233.9
956.9235,735.1
956.9879,807.3
957.2122,176.9
957.4806,865.7
957.589,897.6
957.8089,21.7
959.1097,188
959.376,89.2
959.5458,386.7
959.5858,439.2
959.9887,279.9
960.2088,1060.4
960.4045,126.1
960.805,395.6
960.9161,101
961.0104,240
961.2344,690.1
961.4849,20.8
961.5132,1033.2
961.6678,1532.9
962.3347,130.8
962.5786,340.3
963.1085,759.4
963.1967,827.4
963.3447,598.4
963.3808,944.9
963.4447,122.8
963.9842,2153.6
964.1002,180.7
964.1461,1374.4
964.4775,20.6
964.6658,266.2
964.6827,257.9
964.9028,166.3
964.9825,229.5
965.1135,168.3
965.2105,174.1
965.2865,198.3
965.3412,490.5
965.8268,111.7
966.5162,20.8
967.1532,19.3
967.2212,21.3
967.5817,603.8
967.8546,238
968.1624,981.8
968.4688,3092.1
968.5443,1219.8
968.5907,1004.9
968.858,237
969.0486,88
969.2068,653.3
969.2728,210.2
969.5879,195.9
970.1277,2319
970.3031,673.7
970.6038,805.9
971.3817,1185.1
971.5062,620.3
971.5641,139
972.0001,674.2
972.7091,1109.5
972.7381,1480.7
972.9057,312.6
973.3352,932.8
973.4408,1124.6
973.6085,187.9
973.9306,1034.1
974.1257,994.4
974.3637,890
974.483,1463.1
974.9423,306.2
974.9728,237.1
975.2571,189
975.5002,249.8
975.7573,680
976.009,2415.8
976.2419,875.4
976.4115,117.3
977.1501,1261.8
977.7062,891.2
977.7947,107.2
978.5233,154.3
978.8229,1060.6
978.8545,163
978.9387,856.5
979.8722,877.9
980.2876,143.5
980.52,1890.4
980.6301,1736
980.6629,1268.3
980.7253,250
981.3748,299.4
981.5177,338.3
981.7225,1860.7
982.0432,988.7
982.2247,151.1
982.2921,1256.3
982.4068,116.9
982.933,1220.2
982.9638,2858.5
983.0466,423.1
983.3413,738.3
983.9819,835.2
984.0592,1035.4
984.3971,110.4
984.484,272.6
984.7882,18.5
985.5767,140.1
985.8327,496.5
986.114,149.8
986.3174,112.8
986.9369,1007.1
987.0875,279.9
987.191,836.5
987.4831,230.2
987.5283,1845.7
987.6544,324.7
987.8742,240.7
988.0938,878.2
988.2297,276.3
988.2969,395.4
988.5698,1100.3
988.9093,806
988.9965,1697.2
989.0446,93.3
989.1461,179.2
990.4414,926.9
991.461,825.3
991.5242,1255.1
991.8276,103.1
991.9457,551.9
992.0347,1275.7
992.0808,602.2
992.343,443.5
992.4824,933.9
992.6656,1299.3
992.8139,990.6
993.0096,222.4
993.1195,736.6
993.2971,788.1
993.6045,848.8
993.651,21
994.5244,800
996.6874,984.8
997.1851,387.6
997.2282,2016.4
997.2946,175.2
997.6028,174.3
997.8599,1615.9
998.3229,140.8
998.4243,420.3
999.1581,511.7
999.3485,18.8
999.5163,1090.6
999.5936,1596.8
999.6399,151.4
999.7266,183.4
999.8855,319.3
