SPECTRUM - MS,
385.RAW,
FTMS + p ESI Full ms [50.00-1000.00],
Scan #: 1-40,
RT: 0.01-1.96,
AV: 40,
m/z,Intensity

50.0021,529.1
50.005,168.7
50.0197,104.3
50.0371,239.7
50.0507,159.5
50.0568,464.6
50.063,90.4
50.0656,209.7
50.0689,175.6
50.0805,142
50.0989,17.2
50.1005,223.1
50.1135,150.7
50.1308,631.2
50.1369,312.3
50.1709,853.9
50.1798,477.1
50.1807,172.9
50.1831,555.9
50.1856,657.3
50.199,15.2
50.2136,651.5
50.2189,483.6
50.2261,1065.4
50.2268,457.8
50.2368,92.3
50.2439,140.1
50.2517,164.9
50.268,100.4
50.3013,341.6
50.3176,103.7
50.3258,16.6
50.3433,125
50.3516,200.9
50.3537,576.4
50.374,18.3
50.3834,92.7
50.4054,187.2
50.4105,17
50.4267,506.3
50.4402,16.3
50.4796,17.3
50.5009,86.6
50.511,127.5
50.5168,225
50.5251,209
50.5413,834.8
50.5461,86.8
50.5519,18.4
50.5632,140.7
50.5797,115.6
50.5824,114.9
50.6024,123.8
50.6169,198.4
50.6308,17.4
50.6444,130
50.6465,134.2
50.6509,135
50.6512,342.9
50.6591,15.3
50.6738,281.1
50.6772,20.1
50.692,522.6
50.7088,329.2
50.7116,16.1
50.7129,1004.6
50.7199,16.2
50.7296,483.7
50.7512,210.8
50.7785,142
50.7898,125.9
50.8223,137.6
50.8291,160.8
50.8356,122.1
50.8361,245.4
50.8402,194.9
50.8496,93.1
50.8504,139.9
50.8583,115.8
50.8618,886.3
50.8703,80.9
50.8709,17.7
50.8836,389.2
50.8913,140.1
50.9018,81.2
50.9341,80.1
50.938,142.8
50.9399,16.9
50.9461,550
50.9622,323.8
50.9692,68.4
51.0111,14.6
51.0113,16.2
51.0151,104.7
51.0194,716.6
51.0196,932.4
51.0204,121.6
51.0232,16.9
51.0345,124.1
51.0609,882.7
51.0664,71.8
51.0704,176.7
51.0901,87.1
51.1246,265.3
51.1401,281.3
51.1592,252.8
51.1644,90.9
51.1717,20.2
51.18,125.5
51.182,625.6
51.1941,115.5
51.1965,497.1
51.2158,16.7
51.2204,130.3
51.2373,14.9
51.2448,237.9
51.2463,934.9
51.2533,97.7
51.2746,323.1
51.2761,488.8
51.2831,337.9
51.288,104.8
51.3041,131.7
51.3105,139.3
51.3175,155.9
51.3187,18.3
51.3257,88.4
51.3468,87.5
51.3483,124.9
51.3522,338.3
51.3608,19.1
51.3633,142.9
51.3662,115.8
51.3669,514.6
51.3678,560.1
51.373,531.3
51.3745,326.1
51.3851,296.6
51.3948,973.3
51.3978,123
51.4095,341.2
51.4391,207.8
51.4397,16.3
51.4404,81.9
51.446,888.1
51.4469,190.9
51.4682,318.7
51.4775,290.2
51.4824,109
51.4879,124.1
51.4952,309.8
51.5248,138.3
51.5398,135.2
51.5709,116.6
51.5803,138.2
51.5937,137.2
51.6052,588
51.6186,900.3
51.6331,376.3
51.6348,228.4
51.6571,155.8
51.6801,336.1
51.701,161.6
51.7063,80.9
51.7069,127.9
51.7315,20.1
51.7332,137.8
51.7655,133.2
51.7805,570.4
51.7936,152.2
51.8048,301
51.8166,345.9
51.8224,17.2
51.8382,179.6
51.8443,115.1
51.8615,184.6
51.8678,308.6
51.8715,167.5
51.8876,79.3
51.8976,15.6
51.9381,588.9
51.9543,18
51.9557,82.8
51.9593,208
51.9664,229.6
52.0218,115.7
52.0343,298.9
52.0378,91.7
52.0445,17.4
52.0562,176.2
52.0599,362
52.0643,97.4
52.0719,143
52.095,286.5
52.1011,83.5
52.1034,658
52.1055,164.3
52.1075,625.9
52.1094,150.1
52.1107,792.9
52.1191,129.1
52.1218,359
52.1324,344.8
52.1355,785.5
52.1438,157.7
52.1444,129.3
52.1452,92
52.1481,94.7
52.1725,136.2
52.173,86.5
52.1748,193.3
52.1832,16.7
52.1836,562.9
52.1871,85.9
52.1899,82.9
52.1976,232.9
52.2229,88.4
52.23,268.6
52.2509,156
52.2552,392.1
52.2836,423.4
52.3046,454.9
52.3222,95.4
52.3556,145.9
52.3887,20.1
52.3906,455.7
52.393,81.8
52.3972,68.3
52.4139,389
52.4143,17.7
52.4163,111.2
52.4575,159.5
52.4725,120.1
52.4738,413.6
52.484,607.9
52.4921,139.4
52.5094,496.8
52.5316,131.3
52.5456,316.8
52.5457,357.8
52.553,18.4
52.5534,157.3
52.5571,16.6
52.559,139.1
52.5622,163.4
52.5634,190.6
52.5732,460.7
52.5881,97
52.5887,286.1
52.5995,99.2
52.6037,98.2
52.6238,90.3
52.6694,89.8
52.6734,106.5
52.6781,125.9
52.7184,252.2
52.7298,15.9
52.7375,147.3
52.7471,497.3
52.7571,88.5
52.7588,145.5
52.7663,373.3
52.7796,650.5
52.7799,102.5
52.8,16.3
52.8097,548.4
52.8194,35.1
52.8196,50.3
52.8203,41.3
52.8226,28.7
52.8233,487.9
52.8235,966.8
52.8245,557.5
52.8249,859.9
52.8254,1877.8
52.8259,2786.8
52.8272,1262.1
52.8277,2041.1
52.8281,557
52.8285,942
52.8335,168.3
52.8381,110.7
52.8401,277.1
52.8421,166.1
52.8525,135
52.8705,809.8
52.8778,16.3
52.8794,510.5
52.9034,292.6
52.907,127.6
52.9222,85.8
52.9227,15.3
52.9334,315.1
52.9356,106.6
52.9438,100.2
52.9471,176.8
52.95,120.3
52.9692,298.2
52.9734,183.9
52.9845,220.3
52.9931,17.1
53.0117,293.9
53.0195,92
53.0228,245.8
53.0402,497.3
53.0472,165.6
53.051,279.8
53.07,115.6
53.0734,498.9
53.0805,196.3
53.1049,209.7
53.1194,793.9
53.1277,339.1
53.1386,160.6
53.1499,15.5
53.1635,449
53.1728,80.4
53.1932,118.8
53.1939,110.3
53.2036,313.6
53.211,88.8
53.2226,113.6
53.2243,80.1
53.2303,128.1
53.2371,16.2
53.2387,190.3
53.2464,704.9
53.2499,139.4
53.2599,124.3
53.27,164.1
53.2711,393
53.2723,120.8
53.2976,133.2
53.3021,108.2
53.3055,654
53.3146,151.6
53.3228,636.8
53.3255,704.4
53.333,693.9
53.3508,813.2
53.3564,172.1
53.3631,293.8
53.3644,116.1
53.3675,75.7
53.3775,172.7
53.392,78.4
53.398,152.1
53.4019,571.6
53.4096,156.2
53.4169,110.2
53.4243,14.6
53.4341,87.7
53.4385,167.7
53.4436,14.2
53.464,496.9
53.5164,403.5
53.5241,15
53.5337,90.6
53.5441,15
53.5463,15.6
53.5486,14.2
53.5542,519.3
53.564,159.2
53.5668,522.2
53.5751,578.9
53.5772,131.8
53.5951,861.5
53.6108,607.4
53.6138,135.8
53.6302,17.9
53.6504,403.3
53.6643,173.5
53.6882,564.3
53.6944,291.1
53.6963,508.4
53.7022,22.1
53.7028,521.6
53.7123,273.8
53.7592,14.8
53.788,235
53.8139,152.1
53.8204,127.2
53.8211,184.1
53.8297,117.5
53.8323,81.2
53.8477,204.5
53.8642,789.3
53.8646,215.4
53.865,89.1
53.8721,304.2
53.8727,422.9
53.8749,140
53.8982,227.2
53.9202,107.1
53.9267,20.3
53.9539,1029.2
53.9625,315.7
53.9639,72.6
53.9912,82.6
53.9982,86.2
54.0021,164.5
54.008,113.8
54.0253,107.5
54.0413,266.2
54.0463,20.2
54.0491,117.7
54.0796,761
54.0924,89
54.0984,71.2
54.1224,15.1
54.126,73.3
54.1548,83.8
54.1918,379.9
54.1974,211.7
54.1979,516.7
54.2094,95.7
54.2202,555.3
54.2328,81.1
54.248,630
54.281,91.2
54.2953,213.3
54.3081,127.6
54.315,180.5
54.3174,234.4
54.3184,109.9
54.3227,200.9
54.3244,220.8
54.3352,114.7
54.3541,236.5
54.3566,87.5
54.3624,847.1
54.3795,657.9
54.4104,219.7
54.4445,85.9
54.4453,133.9
54.4498,131
54.4602,834.3
54.478,123.7
54.4876,16
54.5295,312.5
54.5338,18.4
54.5362,441.3
54.5441,461.2
54.5649,239
54.5913,137.5
54.6026,110.6
54.6173,102.2
54.6432,145.4
54.6692,94
54.6771,202.9
54.6872,122.6
54.696,109
54.713,320.2
54.7136,110.2
54.7608,122.2
54.7769,206.6
54.8001,629.1
54.8083,115
54.8288,18.8
54.8302,17.2
54.8374,152.4
54.8566,167.6
54.8738,371.8
54.8883,176.9
54.8957,18.5
54.9014,343.4
54.9035,16.5
54.9208,18.2
54.9299,146.2
54.9525,90.3
54.9592,220.5
54.9601,121.7
54.9655,96.1
54.9736,820.9
54.9791,564.7
54.9838,546.5
54.9889,649
55.0384,765.9
55.0564,371.8
55.0719,168
55.1138,157.4
55.1295,345.3
55.1353,104.2
55.1368,337.1
55.1431,272.3
55.1473,83.1
55.1523,16.9
55.1762,530.8
55.1933,243.1
55.2106,823.1
55.2416,118.8
55.2492,125.4
55.275,193.8
55.2804,90.8
55.295,355.8
55.3052,84.8
55.3279,377.6
55.3302,16.1
55.338,273
55.3411,407.9
55.3421,575.9
55.348,463.3
55.3581,408.3
55.3625,161.1
55.3734,137.4
55.3808,813.7
55.3888,231.5
55.4033,124
55.4044,659.6
55.4058,425.9
55.4105,416.7
55.438,382.9
55.4437,113.1
55.4752,84.1
55.4785,224.4
55.4819,140.1
55.4941,348.5
55.5162,445.7
55.524,350.7
55.5459,446.5
55.5758,572.6
55.5784,327.8
55.5902,574.9
55.5972,79.1
55.5986,494.6
55.6117,117.9
55.6311,85.1
55.6492,145.2
55.6651,351.1
55.6731,167.1
55.6836,17.6
55.6958,636.7
55.7243,74.5
55.7432,119.9
55.762,502.5
55.7766,95.3
55.7827,281
55.7849,87.1
55.7972,16.7
55.8152,77.9
55.8225,459.9
55.8264,661.4
55.8332,196.6
55.8409,140.1
55.8426,138.9
55.846,109.2
55.8596,322.7
55.9012,187.7
55.938,462.1
55.9398,92
55.9462,83.6
55.9689,121.3
55.9944,363.1
56.0042,506.9
56.0081,156.1
56.0109,16.1
56.0156,108.8
56.0216,17.4
56.0244,246.1
56.0275,493.6
56.0292,94.2
56.0558,89.5
56.0825,105.6
56.0872,129.5
56.0946,18
56.1043,855.7
56.1239,684.3
56.1247,474.5
56.1476,17.7
56.1523,771.5
56.1594,258.2
56.1604,666.9
56.1717,126.9
56.1757,91.9
56.1777,15.6
56.1928,161.8
56.2032,247.8
56.221,91
56.2343,148.6
56.2377,533.8
56.2421,18.5
56.245,127
56.2456,162.7
56.249,300.6
56.253,339.8
56.2861,79.1
56.2964,94
56.3027,135.2
56.3083,165.9
56.313,922.9
56.3153,174.6
56.3199,93.3
56.329,117.1
56.3323,16.4
56.396,396.7
56.4199,204.3
56.4229,163.2
56.4239,166.9
56.4277,86
56.4414,129.7
56.4446,90.3
56.4449,101.9
56.4644,989.6
56.4661,282.3
56.4738,18.9
56.4769,675.8
56.5058,713.6
56.5071,225.9
56.5079,633.6
56.5105,131.1
56.529,18.9
56.5464,85.7
56.5469,79
56.5483,192
56.5525,314
56.5765,115.7
56.5782,101.9
56.5861,350.9
56.5947,84.5
56.6131,122.2
56.6377,296
56.6477,95.1
56.6495,86.8
56.65,17.1
56.6547,96.8
56.658,115
56.6708,173.7
56.675,286.1
56.6933,344.7
56.7011,175.8
56.7122,815.5
56.7165,120.1
56.7238,98.1
56.73,107.6
56.7351,130.6
56.7437,82.1
56.745,624.4
56.756,326.7
56.7743,251.7
56.7785,136.1
56.7803,760.8
56.7817,644.5
56.7855,338.4
56.787,552.2
56.8148,140.6
56.8276,149.6
56.8418,103.3
56.8528,18.9
56.8568,437.6
56.8655,535.8
56.8912,159.5
56.9063,364.1
56.9092,725.1
56.9229,640.8
56.924,110.6
56.9312,177.4
56.9334,92.5
56.9357,423.7
56.942,93.2
56.9427,147.9
56.9971,462.5
57.0002,106
57.0133,225.5
57.0153,143.1
57.0264,929.6
57.0503,646.3
57.0533,126.9
57.0799,164.7
57.0842,728.7
57.0884,94.2
57.0956,86.8
57.0967,118.5
57.1227,576.5
57.1238,635.4
57.1508,329.5
57.1631,106.9
57.1829,188.5
57.2024,87.4
57.2042,354.3
57.2097,92.5
57.2118,113.7
57.2159,143
57.2195,699.6
57.2447,116.7
57.2694,317.9
57.2866,99.5
57.3057,569.6
57.3312,128
57.3587,307.8
57.3658,93.4
57.3676,920.3
57.3685,444.7
57.376,248.5
57.3899,493.7
57.4102,619.2
57.4121,153.7
57.4338,67.9
57.4343,493.8
57.4353,221.4
57.4369,137.1
57.4485,164.1
57.472,103.8
57.4725,80.7
57.481,143.1
57.5231,16.8
57.5246,180.6
57.5486,155.5
57.5507,85.2
57.5565,130.7
57.5585,522.4
57.5682,16.6
57.5756,647.5
57.5855,372.6
57.5945,111.4
57.5973,510.5
57.6007,775.2
57.6018,149
57.6338,17.6
57.6865,99.8
57.689,921.8
57.6898,121.6
57.6966,195.8
57.7046,126.3
57.7221,113
57.7322,611.3
57.733,814.7
57.7413,109.2
57.7432,395.4
57.749,118.4
57.7498,110.8
57.7526,16.2
57.7723,866.3
57.7726,171.1
57.7761,407.8
57.7829,203.3
57.7837,93.9
57.7887,643.5
57.7921,425.5
57.8025,179.2
57.806,18.9
57.8332,93.3
57.8386,300.8
57.8572,122.1
57.8672,16.6
57.8841,201.4
57.9038,250
57.9085,430.3
57.9168,161.9
57.9462,668.9
57.9554,98.9
58.0051,129.4
58.0428,172.3
58.0457,95
58.0596,317.3
58.0976,342.8
58.0992,111.3
58.107,312.4
58.1107,79
58.1194,137.5
58.1202,940.7
58.1209,304.9
58.1316,699.9
58.1424,807
58.148,630.3
58.1574,350.2
58.203,150.7
58.2277,98.2
58.2371,688.5
58.2377,193
58.2418,282
58.2451,99
58.2544,415.2
58.2759,93.2
58.3311,114.2
58.3382,18.5
58.3521,121.6
58.3561,351.9
58.3626,78
58.3827,277.7
58.3903,80.4
58.3964,119.9
58.3993,185.3
58.4135,168.4
58.414,87.4
58.4164,88.1
58.4438,834.8
58.4477,18
58.4482,513.9
58.4603,183.4
58.4662,348.9
58.4937,92.5
58.5084,732.6
58.5331,75.5
58.5387,199.6
58.5417,278.2
58.5579,221.4
58.56,380.7
58.5684,690.5
58.575,138.3
58.5963,845.5
58.5969,277
58.6126,93.9
58.6275,799
58.631,768.4
58.6408,145.7
58.6445,134.8
58.6464,402.4
58.6526,17.3
58.6698,192.3
58.6804,371.2
58.6835,102.6
58.6869,115.5
58.6897,112.3
58.6906,276.2
58.7008,101.1
58.7083,245.8
58.7095,96.8
58.7102,16.9
58.7308,510.7
58.7409,202.8
58.7528,175.3
58.7597,133
58.768,966
58.7814,124.9
58.7916,388
58.793,311.6
58.7961,18.9
58.8111,292.9
58.8244,107.7
58.8531,464.3
58.8538,159.5
58.8753,87.8
58.8931,161
58.9039,453.7
58.9369,133.6
58.9419,505.9
58.9445,180.3
58.9493,172.5
58.9588,151.7
58.9708,109.6
58.972,166.9
58.9731,665.1
58.9821,206.2
58.991,151.3
59.0131,314.2
59.0443,159.4
59.0697,1031.6
59.0864,212.9
59.0893,133.7
59.0962,289.8
59.1048,179.6
59.116,129.9
59.1265,268.8
59.1463,17.1
59.1528,16
59.1558,123.3
59.1658,17.4
59.1831,818.2
59.2044,137.7
59.211,562.5
59.2465,90.4
59.2717,322.9
59.2795,287
59.2826,17
59.2864,85.9
59.2916,173.4
59.3173,180.3
59.3193,85.6
59.3627,489.5
59.3723,19.1
59.4064,334.4
59.4336,109.6
59.4431,176.2
59.4748,312.6
59.4941,694.1
59.4953,218.8
59.5077,17.2
59.525,552.8
59.5635,82.8
59.5775,95.7
59.5904,130.8
59.6051,301.9
59.6211,343.4
59.6252,101.6
59.6285,16.3
59.6426,96.9
59.6444,95.9
59.6526,196.6
59.6546,176
59.6897,690.8
59.6943,310.3
59.7015,408.8
59.7087,118
59.7124,95.7
59.7231,311.1
59.7613,116.6
59.7648,17.3
59.7823,129.3
59.7884,276.7
59.8128,16.9
59.8192,112.5
59.8302,15.8
59.8439,304
59.8506,141.9
59.8586,128.4
59.8633,72.6
59.8664,469.3
59.8745,385.8
59.8781,143.1
59.9057,118.1
59.9101,19.9
59.9138,81.4
59.9316,17.5
59.9324,185.1
59.9625,430.8
59.9867,92.9
59.9877,224.6
60.0059,175.4
60.0083,571.6
60.0116,105.5
60.0194,70.6
60.0345,165.9
60.0449,148.9
60.0488,695.1
60.0636,101
60.0813,874.5
60.1052,114
60.1071,17.8
60.1164,106.8
60.118,314.4
60.1281,127
60.1335,476.9
60.1422,130
60.152,828.2
60.1762,15
60.1817,94
60.2266,78.7
60.2311,128.5
60.2349,137
60.2364,112.9
60.2387,188.6
60.256,19.7
60.3038,86.9
60.306,181.1
60.3093,737.4
60.3238,327.1
60.3631,18.5
60.3757,17.2
60.3818,75.8
60.3998,215.4
60.4024,96.1
60.404,82.1
60.417,119.4
60.4242,150.5
60.4404,74.1
60.444,274.4
60.452,93.2
60.4714,130.6
60.4731,205.7
60.4825,435.3
60.5169,122.2
60.5317,113.3
60.5586,597.1
60.5588,569.5
60.5643,96.9
60.5765,969.3
60.5952,17.3
60.6135,301
60.6198,697.7
60.6211,433.4
60.6217,249.8
60.6463,534.5
60.6469,20
60.7022,531.3
60.7051,103.7
60.707,453.1
60.7207,425.3
60.7303,119.3
60.7395,108.9
60.7431,510.9
60.7459,160.4
60.7538,323.6
60.7546,113.4
60.7775,128.7
60.7852,385
60.8016,16.2
60.8033,18
60.8051,144.7
60.8068,77.8
60.8099,157
60.817,95
60.8211,16
60.8326,229.3
60.8353,683.6
60.845,92.9
60.8517,94.5
60.864,762.2
60.8655,279.1
60.8839,479.2
60.8843,113.1
60.8923,323.8
60.8932,89.6
60.8936,130.4
60.9211,147.4
60.9449,794.4
60.9454,176.9
60.9514,122.8
60.9597,202.4
60.996,234.5
61.0111,85.5
61.0165,1090.9
61.0217,772.1
61.0436,17.5
61.0451,679.7
61.0579,135.4
61.0775,775.2
61.0805,744.4
61.0852,243.1
61.0929,162.8
61.095,152.5
61.1025,497.2
61.1898,479.1
61.1959,144.1
61.2153,15.9
61.2705,405.9
61.3002,353.2
61.3048,519.7
61.3057,133.6
61.3161,270.2
61.3285,108.6
61.3331,19
61.3444,219.9
61.3499,157.5
61.3887,482.3
61.4052,167.7
61.4193,115.4
61.4255,85.8
61.428,698.6
61.4536,315.6
61.4543,393.1
61.4561,140.4
61.4656,206.5
61.4679,390.9
61.4702,98.8
61.4773,300.3
61.4831,138.7
61.4913,960.9
61.4965,124.7
61.5017,211.5
61.5181,157.7
61.5299,16.5
61.5363,664.7
61.5522,160
61.5542,293.4
61.5595,98
61.5739,131.1
61.5859,891
61.5867,363
61.6148,19.3
61.621,79.7
61.6483,18.8
61.6612,101.9
61.6719,183.7
61.6755,125.1
61.6889,301.9
61.6941,153.5
61.6947,300.6
61.7196,17.4
61.7459,470
61.7709,172.2
61.776,244.8
61.7803,855.7
61.7854,1019.5
61.7861,92.2
61.7883,338
61.8078,264.8
61.8275,95.6
61.8466,906.2
61.8631,348.1
61.8784,723.5
61.8886,84.2
61.8907,15.3
61.9221,115.9
61.9235,340.4
61.9321,15.5
61.9411,187.7
61.991,223.4
61.9936,103.1
61.9957,16.4
61.9964,123.7
61.9975,125.8
62.0009,398.1
62.005,91.3
62.0105,96.4
62.0468,343.9
62.0503,855.7
62.0528,832.2
62.066,258.9
62.0669,636.8
62.073,127.4
62.0752,17.1
62.0852,424.2
62.0934,87.5
62.1046,177.6
62.1617,20.1
62.1668,74.7
62.1704,853.1
62.1759,230.6
62.2071,109.1
62.2101,131.4
62.2125,321.1
62.2191,143
62.2443,100.8
62.2539,112.5
62.2574,153.8
62.2595,264.2
62.2652,1013.3
62.266,120.4
62.2676,596.9
62.2808,660
62.2817,372.4
62.3166,330.1
62.3228,1001.5
62.3312,117.4
62.3412,325.3
62.3522,139.3
62.3935,125
62.4159,113.9
62.4179,461.5
62.4247,348
62.4254,361.6
62.4328,120
62.4372,17.2
62.4458,493.5
62.5029,166.3
62.5084,579
62.5436,17.6
62.5712,229.7
62.5759,196.4
62.593,374.8
62.6029,292.7
62.6247,133
62.6448,171.2
62.6553,390
62.6616,906.6
62.6649,353.4
62.6701,374.5
62.6899,523.8
62.7098,926.6
62.7231,256.1
62.7295,378.4
62.7371,89.5
62.7761,351.2
62.7928,329.3
62.8077,357.9
62.852,391.9
62.861,944.3
62.8653,293.4
62.8931,17.3
62.8959,17.6
62.9317,90.4
62.9417,19.8
62.9439,324.4
62.9569,196.5
62.9639,134
62.9728,16.6
62.9798,231.8
62.9814,241.2
62.9941,856.8
63.0209,641.5
63.036,186.3
63.0581,133.4
63.0685,111.9
63.078,162.1
63.1105,781.1
63.1112,78.3
63.1213,140.6
63.1238,702.3
63.1277,763.4
63.1377,124.3
63.163,378.8
63.1941,536.5
63.264,223.9
63.2855,105.1
63.2865,626.9
63.3452,824
63.3629,229.3
63.3719,130
63.3954,95.2
63.4132,181.9
63.4224,140.3
63.4272,204.6
63.4433,237.9
63.4616,262.4
63.4666,226.2
63.47,113.3
63.485,174.4
63.5019,89.2
63.5233,329
63.53,1155.8
63.5519,517.8
63.5583,120
63.5637,648
63.5675,135.9
63.5918,177.2
63.6046,348.9
63.6124,16.1
63.6217,18.2
63.659,332
63.6656,553
63.6723,323.4
63.6759,191.1
63.68,325.5
63.6946,165.8
63.712,148.7
63.7129,191.1
63.7196,467.8
63.7365,17.3
63.7378,96.6
63.778,105
63.789,150.3
63.7955,252.9
63.8055,660.9
63.8394,508.7
63.8422,411.6
63.8433,139.8
63.846,222.2
63.8647,233.3
63.8742,677.2
63.8928,89.5
63.8939,975.3
63.9455,488.9
63.9527,258.2
63.9557,102.9
63.9743,190.7
64.0037,130.1
64.0222,476.4
64.0292,360.4
64.0321,93.6
64.044,558.9
64.0523,133.6
64.0949,765
64.1042,219.9
64.1328,163.1
64.1589,154.2
64.1836,113.7
64.2137,161
64.2255,109.8
64.2363,102.8
64.2437,126.5
64.2505,129.4
64.2659,160.3
64.2702,495.9
64.2727,364.9
64.2751,17.5
64.2896,687.1
64.2973,128.7
64.3062,225.1
64.3162,21.7
64.3506,141.6
64.3622,139.7
64.3789,135.9
64.3841,227.2
64.3888,980.5
64.4107,356.1
64.4172,376.1
64.4336,120
64.443,101.7
64.4445,941.4
64.4614,181.6
64.4643,1027.6
64.4674,717
64.4877,271.7
64.507,125.5
64.5376,20.7
64.5468,168.4
64.5519,859.7
64.558,182
64.5674,365.9
64.5684,357.4
64.591,18
64.5917,658
64.6028,118.4
64.6254,102.3
64.6523,473.7
64.6723,461.8
64.6803,374.1
64.6938,99.3
64.7009,86.8
64.702,317
64.7042,203.4
64.727,18.3
64.7377,516.2
64.7454,96.9
64.7593,181
64.7663,181.8
64.7695,103
64.7851,97.2
64.7889,404.3
64.8027,134.9
64.8038,105.3
64.807,91.3
64.8128,433.7
64.8196,682
64.8285,624.4
64.8296,16.5
64.8401,147.2
64.8615,21.6
64.8731,694.9
64.8825,393.6
64.8844,129.7
64.8895,98.1
64.9085,309.9
64.9149,107.7
64.9414,103.8
64.9434,229.8
64.9514,342.3
64.9651,168.8
64.974,97.1
65.0122,122.5
65.0267,845.1
65.0447,556.4
65.0574,594.2
65.0627,135.1
65.0762,200.2
65.084,528.2
65.0916,85.3
65.0948,580.8
65.0963,95.4
65.1022,132.2
65.1138,210.2
65.1291,20.8
65.1373,359
65.1579,117.3
65.1626,822.1
65.1632,234.9
65.1665,166.7
65.1666,145.3
65.167,164.6
65.1681,801.3
65.1705,547.9
65.178,19.9
65.1796,358.9
65.1802,170.3
65.1812,267.4
65.1823,173.6
65.2302,93.6
65.2336,207.1
65.2481,183.2
65.2775,109.7
65.3232,137
65.3336,377.6
65.3348,293.5
65.3453,308.7
65.3465,140.4
65.3594,505.5
65.3778,149.1
65.3783,343.7
65.4089,17.6
65.4119,411.1
65.4357,73.9
65.447,285.5
65.4501,257.2
65.4604,247.2
65.5019,84.6
65.5045,21.6
65.5226,403.5
65.5592,141.2
65.5645,189.4
65.5681,18
65.5844,283.5
65.5905,92.7
65.6147,110.9
65.6159,184.2
65.623,89.9
65.6243,212
65.6297,17.3
65.6441,122
65.6465,162.3
65.6743,83.5
65.6982,189.8
65.7135,235.4
65.7578,123.1
65.7725,571.3
65.7734,102.8
65.791,76.6
65.7928,265.7
65.8019,175.8
65.8044,647.7
65.8343,395.4
65.8445,93.3
65.8482,16.8
65.851,169.4
65.8566,106
65.8617,246.8
65.8624,857
65.8718,199.8
65.9241,534.4
65.9253,775.7
65.9313,20.1
65.9652,101.1
65.9705,167
65.9872,16
65.9894,728.4
66.0116,92.6
66.0168,138.6
66.0186,18.6
66.0338,133.3
66.0345,15.5
66.0389,20.8
66.0393,447
66.056,188.7
66.0644,131.4
66.1031,125.8
66.1124,134.6
66.1254,823.8
66.1417,159.2
66.1442,595.1
66.1488,147.5
66.1521,522.5
66.1632,142.1
66.1673,16.7
66.2016,447
66.2073,214
66.2099,82.6
66.2193,17.8
66.2278,359
66.2452,192.3
66.2527,1019.7
66.2738,377.6
66.2789,122
66.3161,334.3
66.318,106
66.3284,342.6
66.3336,273.6
66.3597,607.1
66.3669,129.7
66.3717,18.9
66.3757,350.5
66.3777,383.4
66.3852,286.1
66.3906,725.8
66.3962,604.4
66.4026,341.9
66.4111,17.6
66.4179,261.9
66.4511,156.2
66.4897,89.1
66.5282,617.9
66.5294,142.4
66.5568,580
66.593,938.2
66.599,80.5
66.6066,96.2
66.6093,431.9
66.6117,398.1
66.6417,123.4
66.6432,123.7
66.6446,19.4
66.6636,409.8
66.6659,589.2
66.6887,919.3
66.7091,514.9
66.7495,585.5
66.7508,110.4
66.7662,334
66.7995,187.5
66.8076,358.5
66.8257,113.4
66.8276,311.6
66.8418,101.6
66.843,101.1
66.8581,16.9
66.8663,164.9
66.8687,289.8
66.8747,224.3
66.8873,172.6
66.9149,206.5
66.9577,246.8
66.9659,217.6
66.9859,309.2
66.9895,94
66.9914,17.3
67.0061,620.9
67.0381,204.4
67.0434,818.5
67.0538,28.9
67.0676,88.3
67.0725,261
67.0741,146.6
67.0868,127.4
67.0896,249.3
67.0949,23.8
67.1012,18.6
67.11,280.2
67.1119,1009.4
67.118,159.1
67.1222,295.8
67.1234,905.2
67.1278,244.4
67.1283,132
67.1407,132
67.1584,687.5
67.162,127.1
67.1814,313.7
67.1896,789.2
67.1979,139.7
67.2277,560.5
67.2595,510.1
67.2652,106.9
67.2918,17.6
67.3029,506.8
67.3095,196.6
67.3267,125.6
67.3607,16.8
67.3921,98.1
67.3934,337.1
67.3974,346.5
67.3978,1105.7
67.4234,413.4
67.4351,112.8
67.4372,78.5
67.447,175.3
67.4706,19.4
67.4721,566.6
67.4989,228.4
67.5203,91.9
67.5412,345.5
67.549,252.4
67.5751,149.8
67.5774,149.3
67.5817,179.3
67.5928,919.7
67.5943,802.8
67.5963,87.7
67.599,261.2
67.6005,17.8
67.6513,210.3
67.6678,857.7
67.6719,96
67.7085,109.5
67.7284,16.1
67.7347,474.9
67.7613,836
67.7761,80.2
67.7879,384.2
67.7941,106.5
67.8021,94.6
67.8117,120.2
67.8269,19.7
67.8292,109.8
67.8569,224
67.8594,16.5
67.886,737
67.8911,129.4
67.897,122.9
67.9053,724.8
67.9173,102.9
67.9202,204.3
67.9645,19.4
67.9666,303.7
67.9677,742.4
67.9751,15.6
67.9765,272.2
67.9989,20
68.0174,16.8
68.0192,16
68.0352,160.7
68.0557,160.8
68.0987,528
68.1218,90.7
68.1222,669.2
68.1339,18.9
68.1348,17.4
68.1463,144.6
68.1686,110.8
68.2015,128.2
68.2248,313
68.2269,119.9
68.2573,386.1
68.2583,173.8
68.2884,150.1
68.3161,146.1
68.3163,141.4
68.3165,130
68.3483,372.5
68.3914,96.5
68.4314,18.5
68.4353,913.6
68.4454,157.3
68.4734,488.4
68.4972,135
68.503,118.9
68.5049,136.4
68.5276,254.8
68.5367,587.7
68.5564,86.1
68.5759,127.8
68.5816,747.1
68.5869,482.8
68.6111,91.5
68.6142,240.9
68.646,710.6
68.6476,116.4
68.6576,212.8
68.6863,307.4
68.7334,17.4
68.7525,558.1
68.7643,237.7
68.7798,131.2
68.8074,315.1
68.8107,712.3
68.8312,166.9
68.8341,18.4
68.8487,140.6
68.851,512.8
68.8587,365.4
68.8631,17.4
68.9355,216.1
68.9494,138.6
68.9691,169.5
68.9886,16.5
68.9964,109.5
69.0226,95.2
69.0277,893.9
69.045,142.4
69.0549,97.5
69.0697,97
69.0832,113.3
69.1101,182.3
69.1162,309.4
69.1228,99.2
69.1317,82.7
69.1695,703.4
69.1707,109.4
69.1853,582
69.187,16.8
69.2133,188.5
69.2162,331.6
69.2224,311.4
69.2381,218.6
69.25,336.1
69.2885,173.7
69.3163,167.3
69.3332,17.6
69.4158,200.7
69.4186,151.3
69.4196,117.3
69.4214,474.2
69.4341,144.6
69.4413,247.1
69.4507,1127.4
69.461,369.1
69.5118,223.3
69.5279,20.4
69.5298,320.3
69.5349,480.4
69.5535,173.8
69.5553,135.4
69.5657,643.7
69.5771,19.5
69.5814,88.1
69.5904,108.4
69.6097,98.4
69.6176,129.8
69.6313,92.2
69.7007,538.8
69.7072,94.6
69.7098,216.7
69.7253,81.7
69.728,116.6
69.7315,194.1
69.7338,168.3
69.7364,93.2
69.749,150.1
69.7588,603.5
69.7737,319.1
69.7899,174.9
69.811,152
69.8171,611.3
69.8485,144.9
69.8607,180.9
69.8662,834.3
69.8701,905.3
69.8779,170.9
69.8827,308.2
69.8961,169.2
69.8977,301
69.9123,476
69.9315,18.4
69.9391,368.3
69.9519,163.3
69.9732,301.6
69.9764,79.2
69.9859,158.5
69.9864,16.9
69.9872,17.2
69.9953,99.5
70.0057,803.5
70.0291,110.5
70.0305,423
70.041,373
70.0463,377.4
70.0472,395.8
70.0648,21.7
70.0724,193
70.0758,201.9
70.0844,395.1
70.1079,283.1
70.1172,94.8
70.1268,107
70.1447,546.8
70.167,649.2
70.1889,429.2
70.2219,490.5
70.2429,324.8
70.25,563.7
70.2662,684.4
70.2715,105.4
70.2746,820.4
70.2795,785
70.282,101.2
70.2849,747.5
70.286,761.4
70.2873,189.2
70.3061,97.3
70.3169,142.1
70.3195,167.8
70.3417,1047.9
70.3729,104.1
70.3819,19.6
70.3905,88.2
70.4315,824.6
70.4459,125.6
70.4505,104
70.4703,172.7
70.4745,113.7
70.4802,117.8
70.4881,395.7
70.5288,98.3
70.5349,285
70.5461,138.9
70.5505,596.6
70.5903,573.4
70.596,123.1
70.6057,17.3
70.6231,882
70.6378,364.5
70.6475,373.7
70.6876,130.2
70.7036,872.6
70.7071,111.1
70.7148,106.3
70.7172,600.1
70.7395,137.7
70.7426,185.8
70.7583,243.2
70.77,194.9
70.7709,122.8
70.7747,739.8
70.7838,272.5
70.8079,17.9
70.8245,111.9
70.833,160.6
70.8372,88
70.9172,368.8
70.9263,351
70.9374,708.7
70.9384,17.3
70.9415,22.7
70.961,103.8
70.9956,1031.7
71.0116,104.6
71.0278,85
71.0286,16.1
71.0393,688.7
71.0484,593.1
71.0594,235.3
71.0642,95.1
71.0667,125.6
71.0853,313.1
71.1342,111.4
71.1369,595.5
71.1385,584.2
71.1412,172.3
71.1688,102.5
71.1872,377.9
71.1889,114.6
71.1947,473.6
71.2341,335.1
71.2533,160.9
71.2731,499.9
71.2776,128.8
71.2825,192.8
71.2888,304.1
71.3168,183.8
71.3176,19
71.3221,104.2
71.3234,103.2
71.3449,334.2
71.3542,270.8
71.3587,196.3
71.3822,91.5
71.3827,346.9
71.3973,393.2
71.4226,615.1
71.4548,105.1
71.487,552.6
71.4879,157.9
71.5088,322.5
71.5121,196.4
71.5292,234.2
71.5405,342.4
71.5926,1190.8
71.612,564.8
71.6144,416.3
71.6155,85.7
71.7039,128
71.7215,94.6
71.7262,295.5
71.7375,397.7
71.7454,127.8
71.7544,314.9
71.7584,234.5
71.769,104.4
71.7722,307.6
71.7998,361.6
71.8027,19.7
71.8062,164.8
71.8126,15.1
71.8285,91.3
71.8338,96.1
71.8372,82.5
71.8508,418.7
71.9023,74.4
71.9029,238.1
71.9111,101.5
71.9122,817.7
71.9263,470.6
71.9713,187.3
71.9815,112.4
71.9905,207.7
72.0023,245.6
72.0063,123.4
72.0201,227
72.0747,374.4
72.0804,469.9
72.1407,133.4
72.1415,16.9
72.1431,130.1
72.1601,84.5
72.1618,129.9
72.1683,289.1
72.1886,136.2
72.2129,16.1
72.2191,30.6
72.2196,36.3
72.2207,213
72.2214,359.8
72.2246,585.3
72.2263,571.6
72.2279,1789.9
72.2283,1012.6
72.2293,208
72.2306,967
72.2316,1928.5
72.2332,1220.6
72.2336,1262
72.2343,3391
72.2353,3926.9
72.2364,1956.3
72.2374,6641.2
72.2383,2419.7
72.2388,3074.3
72.2395,4450.5
72.2405,2427.1
72.2409,1912.1
72.2419,3431.3
72.2431,3383.5
72.2448,2541.1
72.2461,1911.1
72.247,2371.9
72.2478,392.5
72.2485,1519.9
72.2492,836.6
72.2501,405.7
72.251,458.5
72.2516,660.8
72.2529,174.6
72.2536,179.1
72.2561,103.8
72.2585,141.1
72.2593,898.8
72.2644,517
72.2656,88.5
72.2909,190.9
72.3615,310.8
72.3774,106.3
72.3966,145
72.4155,133.3
72.4258,111.5
72.4324,277.2
72.4339,778.8
72.4419,1164.6
72.4471,440.6
72.4523,19.6
72.4544,85.6
72.4582,137.3
72.4599,259.9
72.4735,292.7
72.491,335.9
72.507,123.6
72.5175,83.2
72.5199,512.2
72.5525,155.7
72.5629,185.3
72.5742,319.3
72.5929,605.4
72.6196,96.4
72.6226,633.2
72.6383,83.9
72.64,364.8
72.6945,127
72.717,104.9
72.7182,429.7
72.744,407.8
72.7754,245.2
72.7765,94.8
72.7803,797.6
72.7841,634.9
72.7864,116.9
72.7916,99.5
72.8064,835.7
72.8346,88.3
72.8378,510.2
72.8548,17.7
72.8623,852.8
72.9117,876.8
72.913,301.3
72.9335,885.1
72.9368,613.4
72.9525,144.5
72.9545,348.5
72.9605,717.4
72.9671,931.5
72.9715,263
73.0361,18.3
73.0387,634.2
73.0452,101.5
73.0455,106.1
73.0572,465.7
73.0637,199.9
73.0743,133.7
73.075,124.1
73.0928,88.9
73.097,176.8
73.1025,536
73.1197,695.6
73.1252,185.2
73.136,15.3
73.16,229.6
73.1757,234.1
73.193,128.9
73.2131,133.8
73.2204,174.9
73.2252,134.2
73.312,492.4
73.3134,117.4
73.3288,190.2
73.3318,131.8
73.3413,151.1
73.3621,358.3
73.3682,857.5
73.3789,81.2
73.381,177.6
73.383,848.1
73.3877,978.2
73.3988,208.1
73.4008,785.9
73.4026,16.3
73.4061,81.4
73.4209,865
73.4362,359.6
73.4389,17.3
73.4449,88
73.4486,728
73.4604,16.6
73.4648,123.9
73.4667,108.8
73.5039,150.7
73.5136,116.3
73.5237,151.4
73.5257,20.3
73.5373,19.6
73.5452,659.9
73.5593,315.7
73.5826,105.8
73.6039,997.1
73.6044,583.4
73.6191,435.7
73.6253,337.4
73.6342,632.9
73.6396,16.8
73.6421,365.1
73.6548,118.2
73.6706,16.4
73.6969,114.7
73.6976,16.8
73.702,255.3
73.7053,804.7
73.7134,594.5
73.7273,16.4
73.7384,141.9
73.7628,236.9
73.7658,384.2
73.7784,178.5
73.7885,231.7
73.7992,118.5
73.8054,476.5
73.8235,170.3
73.8301,91.3
73.8894,19.3
73.8986,220
73.9037,115.4
73.932,293.8
73.9582,332.1
73.9672,18.1
73.9738,205.8
73.977,159.1
74.0081,326.9
74.0306,200.2
74.0312,772.5
74.0323,200.7
74.0477,89.3
74.0554,105.8
74.059,178.1
74.0597,2726.6
74.0627,101.9
74.0807,335.8
74.0875,17.7
74.0931,172
74.1167,946
74.1281,159.4
74.1467,780.4
74.1524,480.5
74.1772,315.3
74.2095,212.2
74.2344,109.1
74.2387,95.7
74.2766,235.3
74.286,134.9
74.2888,192.7
74.3183,131.5
74.3394,17.4
74.3464,192
74.3535,131.6
74.3548,332.2
74.3557,337.8
74.3605,788.6
74.3741,135.4
74.3911,746.4
74.4058,729.7
74.4078,390.2
74.4349,18
74.445,94.4
74.4583,372.7
74.4795,186.7
74.4805,355.1
74.4863,268.1
74.4917,300.4
74.5268,431.4
74.5331,503.5
74.5414,542.4
74.549,655.6
74.5604,451.6
74.5713,438.3
74.5782,254.7
74.5877,176.9
74.5895,152.2
74.5929,134
74.601,217.3
74.6106,148.8
74.6374,243.8
74.6396,265
74.6422,127.5
74.6431,131.3
74.6526,260.3
74.6702,176.7
74.6815,410.2
74.7076,18.9
74.7102,81.2
74.7715,19.1
74.7821,524.9
74.7852,204.9
74.8291,19.9
74.83,102.2
74.8422,132.1
74.8451,115.9
74.8615,97
74.875,18.5
74.8822,338.2
74.8917,178.2
74.9433,149
74.9438,138.8
74.9599,200.3
74.9733,93.1
74.9799,88
75.0126,374.6
75.0203,122.9
75.0314,19.1
75.0442,83.3
75.0452,203.8
75.0646,154.7
75.0779,88.8
75.081,931.7
75.0927,541.5
75.111,339.3
75.1314,773.4
75.136,146.6
75.171,543.2
75.1745,742.7
75.1758,125.6
75.1769,251
75.1914,466.4
75.2072,19.1
75.2161,96.9
75.2209,21.1
75.2458,650.6
75.2723,295.9
75.2815,826.1
75.3002,16.3
75.3086,295.7
75.3149,121.2
75.3261,265.1
75.3291,76.2
75.3357,18.6
75.3709,132.2
75.3742,161.5
75.3883,236.9
75.4002,195.1
75.4112,122.7
75.4228,628.8
75.4311,140.3
75.4688,147.9
75.4773,155.7
75.5307,819.5
75.5755,203.3
75.5807,101.1
75.585,331.9
75.5927,191.2
75.5987,793.1
75.6622,159.5
75.6711,99.5
75.7076,841.4
75.7283,87.3
75.7523,251.3
75.7723,450.4
75.7907,220.9
75.7994,583.1
75.8082,768
75.8224,103.4
75.8232,17.5
75.831,167.8
75.8574,175.7
75.8723,84.5
75.8747,731.3
75.8913,487
75.9108,198.9
75.93,854.5
75.9322,989
75.962,649.9
75.9873,16.9
75.9932,239.8
75.9938,542.2
76.0168,119.6
76.018,106.3
76.0184,122.6
76.0259,106.9
76.0475,18.2
76.0516,19.6
76.0524,173.6
76.061,168.9
76.0627,126
76.0732,132.9
76.076,212.9
76.1124,15.9
76.1336,18.5
76.1437,697.7
76.1492,433.1
76.1563,544
76.1724,600.1
76.1849,291.5
76.1901,180.8
76.1924,735.1
76.2069,345.9
76.2171,144.6
76.258,17.7
76.2595,591.7
76.2718,156.4
76.2823,145.1
76.2968,109.8
76.3017,212.8
76.3149,18.1
76.3256,199.2
76.333,622.3
76.3341,151.4
76.3809,255.3
76.3962,330.6
76.4313,112.5
76.4371,932.4
76.4409,121
76.4751,368
76.4838,111.9
76.5056,145.8
76.5067,98.2
76.5153,83.9
76.5231,91.3
76.5324,419.9
76.539,149.2
76.5414,16.7
76.5504,781.5
76.5951,873.6
76.605,94.1
76.6264,735
76.6643,218.1
76.6717,724.3
76.6899,141.6
76.6994,91.1
76.7134,163.2
76.7347,139.3
76.7404,346.6
76.7605,131
76.7667,390.4
76.7915,252.1
76.8319,89.3
76.8666,701.4
76.8711,17.1
76.8731,118.2
76.8978,104.4
76.9011,177.8
76.9041,510.8
76.9052,96.8
76.934,558.4
76.9363,240.2
76.9519,105.6
76.9531,17
76.9614,143.4
76.9697,127.2
76.9766,336.1
77.0344,729.9
77.0373,69.9
77.0383,109729.5
77.0393,741.7
77.0399,588.9
77.0407,153.7
77.0481,454
77.0548,132.2
77.1092,713.4
77.1223,312.2
77.1299,180.7
77.182,398.5
77.1937,205.1
77.1989,340.9
77.2071,629.2
77.2151,302.3
77.2556,343.1
77.2867,609.1
77.3014,516.9
77.3129,114.4
77.3173,601.8
77.3576,854.6
77.3627,18.8
77.3645,236.2
77.3675,154.9
77.3989,80.8
77.4217,204.1
77.4301,333.5
77.4512,117.3
77.4718,192.8
77.4793,152.4
77.4863,156.7
77.5085,384.3
77.5287,132.2
77.5376,19.7
77.5475,177.2
77.586,664.5
77.6118,94.3
77.6269,179.9
77.6359,376.6
77.7493,112
77.7967,969.7
77.8104,147.4
77.856,154
77.8598,695.8
77.8726,203.6
77.8908,81.9
77.8943,20.8
77.9166,822.5
77.922,165.6
77.9447,121.6
77.962,220.9
77.9719,324.8
77.9816,223.5
78.0024,18.4
78.0159,590.8
78.0164,345.5
78.0172,96.4
78.0174,95.5
78.0271,722.7
78.0371,89
78.0389,636.8
78.0416,3098
78.049,18
78.0655,138.4
78.0731,718.5
78.0757,89.7
78.0899,94.1
78.1605,531.7
78.1838,92.4
78.1864,482.9
78.1926,18.3
78.237,93.7
78.2388,159.6
78.2632,18.4
78.2706,800.6
78.2802,154.6
78.307,501.2
78.3096,336.7
78.3103,93.7
78.3374,19
78.3394,138.1
78.3517,149.7
78.3539,260.3
78.3767,191.8
78.3875,18.2
78.389,413.1
78.3906,540.3
78.4039,116.4
78.4236,359
78.4409,17.8
78.4479,245.1
78.4615,17.2
78.4669,129.2
78.4828,301.3
78.503,517.7
78.5147,310.1
78.532,700.2
78.5465,631.8
78.5569,88
78.5772,112.2
78.5834,121.3
78.587,83
78.5971,280.7
78.6007,196.1
78.6052,229.3
78.6431,212.5
78.6756,274.1
78.6843,155.3
78.698,215.6
78.7054,182.6
78.711,449.6
78.7362,220.9
78.7646,155.7
78.7789,285.8
78.7921,18.1
78.8307,79.5
78.8482,479.3
78.8501,116.6
78.884,145.1
78.8864,407.8
78.9054,243.6
78.9065,582.7
78.9344,324.2
78.9425,482.4
78.956,275.7
78.9662,642.9
78.9798,456.3
78.9967,113.7
79.0008,481.3
79.0053,209
79.0247,175
79.0539,1680.8
79.0661,108.8
79.1668,365.7
79.1679,109
79.177,505.5
79.189,718.4
79.1977,116.7
79.2016,169.1
79.2212,16.8
79.2374,139.3
79.2781,181.5
79.2798,146.2
79.3004,17.8
79.3102,88.5
79.3178,213.7
79.3238,699.7
79.3329,16.7
79.3437,98.6
79.3816,231.9
79.3843,140.6
79.3904,20.2
79.4146,362.2
79.4283,127.2
79.4346,861.6
79.4712,99.7
79.4798,860.6
79.4921,926.7
79.4975,105.4
79.5018,76.5
79.5041,529.7
79.517,464.2
79.5325,328.8
79.539,109.2
79.5416,77.7
79.5449,145.4
79.5526,93
79.5658,17.1
79.5819,762.9
79.5874,167.8
79.6246,88.5
79.6335,144
79.6852,160.2
79.6891,792.7
79.7001,155
79.7108,125.3
79.735,320.1
79.7474,154.2
79.7608,118.8
79.7823,383.1
79.7843,246.6
79.8145,741.9
79.8323,275.8
79.8375,81.5
79.8669,103.7
79.8789,18.1
79.8916,275.9
79.9242,422.5
79.9545,115
79.9623,654.4
79.9798,88.1
79.9894,800.3
80.0235,19.5
80.0248,188
80.0557,18.9
80.0649,153
80.0737,16.3
80.0864,102.9
80.0921,342.2
80.0997,209.1
80.131,179.4
80.1604,321.8
80.171,130.3
80.194,714
80.1978,163.8
80.1998,295.3
80.2111,245.2
80.2224,246.8
80.2285,583.4
80.2403,408.3
80.2427,850.8
80.3423,16.2
80.3471,503.9
80.3491,116.6
80.3592,662.3
80.3637,372.7
80.3986,76.8
80.4091,143.7
80.4206,19.9
80.4266,141.6
80.4371,274.3
80.4444,259.8
80.4478,243.4
80.4628,346.2
80.4693,97.3
80.471,568.4
80.4843,649.7
80.513,142.9
80.5549,175.2
80.5759,159.7
80.5905,270.7
80.5995,259.9
80.6046,727.8
80.6062,210.9
80.6105,19
80.633,370.5
80.6379,18.4
80.6563,630.6
80.6801,18.3
80.6825,186.2
80.704,22.8
80.7123,138.9
80.7144,311.4
80.7523,661.9
80.8078,128.9
80.8118,579.5
80.8148,214.5
80.8161,177.3
80.8228,179.1
80.8638,493.3
80.866,592.7
80.873,17.8
80.8776,168.1
80.8788,191.2
80.8834,914.5
80.8871,338.3
80.9136,307.1
80.9475,36916.8
80.9593,89.3
80.9662,127.6
80.9839,470.8
80.9895,83.1
81.038,516.8
81.0534,327.1
81.0568,180.8
81.0696,1101.7
81.0798,145.9
81.1075,151.9
81.1443,18.7
81.1481,262
81.1623,284.3
81.1642,1310.9
81.1659,1243
81.1676,149.1
81.1683,25.9
81.1738,185.3
81.1808,194.2
81.1839,95.7
81.2162,82.1
81.219,145.7
81.2336,163.6
81.2427,865.5
81.2447,127.7
81.2799,349.9
81.2822,128.3
81.2855,169.4
81.2858,158.3
81.2861,143.1
81.2995,565.6
81.3132,96.8
81.3207,224.3
81.3236,915.6
81.4093,140.2
81.4116,190.6
81.4243,274.6
81.4498,111.2
81.4588,570.4
81.4629,125.9
81.4756,524.9
81.4813,16.6
81.5015,107.9
81.507,17.1
81.5087,109.7
81.5569,443.5
81.5802,186.3
81.5964,147.1
81.6128,204
81.6345,255.6
81.6399,16.4
81.6914,132.1
81.7512,317.8
81.7535,350.4
81.7791,179.4
81.7949,869.6
81.7985,631.3
81.8007,301
81.8266,94.4
81.8338,358.6
81.8385,248.8
81.8817,109.4
81.8855,644.7
81.8875,171
81.9247,136.9
81.9426,267.3
81.9743,791.5
81.9772,513.6
81.9876,160.8
82.0778,90.8
82.1238,397.6
82.1806,307.5
82.1986,91.3
82.2019,952.5
82.2166,326.8
82.2207,17.4
82.2408,708.9
82.2631,183.3
82.2703,113.8
82.2738,515.3
82.2804,156.7
82.311,17.7
82.3138,617.6
82.3223,19.6
82.3373,460.9
82.3701,380.8
82.3978,714.5
82.4129,547.3
82.4384,111.7
82.4471,708.7
82.4802,154.8
82.4837,459.4
82.4927,274.1
82.5578,234
82.5608,91.4
82.5632,686.4
82.5723,932
82.5754,344
82.5821,124
82.5905,140
82.6113,754.9
82.653,462.1
82.6661,267.6
82.6788,95.9
82.6927,198.3
82.695,90.2
82.7021,381
82.7038,577.4
82.7519,657.9
82.7703,209.2
82.7763,336.6
82.7847,391.1
82.7968,207.2
82.8035,301.1
82.8069,497.2
82.8187,90.4
82.8459,833.9
82.9089,197.1
82.932,255.3
82.9446,7160.4
82.956,301.3
82.966,449.4
83.0157,548.5
83.0213,143
83.0329,19.4
83.0483,141.4
83.0733,211.1
83.078,835.1
83.0852,202.6
83.1041,18.4
83.1226,95.8
83.1348,550.8
83.175,382.7
83.1912,120.1
83.1979,385.9
83.2074,15.8
83.2159,435.6
83.2262,18.3
83.2465,109.8
83.2601,137.3
83.2841,316.1
83.2963,929.9
83.2997,872.4
83.3209,78.6
83.3298,591.3
83.3425,330.8
83.3438,83.3
83.3467,123.1
83.3551,381.3
83.3592,19.4
83.3729,219.2
83.41,223.5
83.4173,17.5
83.4239,274
83.4273,863.5
83.4658,274.2
83.5128,146.8
83.5472,16.8
83.5809,20.3
83.5839,727.6
83.6177,580.6
83.6223,1009.4
83.6318,17.7
83.6656,139.1
83.686,195.6
83.701,98.6
83.707,528.9
83.7227,177.4
83.7239,121.9
83.7374,411.1
83.7804,298.8
83.7812,20
83.8067,884.3
83.812,93.8
83.8227,534.6
83.8253,332.4
83.8463,122.4
83.8805,478.9
83.8997,21.5
83.9434,382.1
83.9733,181.3
83.9759,1004.9
84.0291,164
84.0441,937.7
84.053,130.7
84.0582,83.7
84.0613,170.7
84.0785,229.8
84.0802,107.7
84.0817,196
84.0896,229.8
84.1394,128.1
84.1544,208.3
84.1553,448.6
84.178,182.9
84.2013,139.2
84.2028,145.6
84.2195,336.2
84.2214,114.4
84.2233,362
84.2258,113.6
84.2517,716
84.2776,383.5
84.321,124.3
84.3302,534.6
84.3375,117.7
84.384,135.5
84.3928,152.6
84.4066,113.2
84.4945,310.7
84.5066,93.6
84.5216,784.2
84.5453,203.1
84.5699,737.9
84.5743,194.7
84.5777,479.9
84.5834,97.1
84.5908,562.2
84.5953,153.5
84.6035,150.3
84.619,501.9
84.6481,19.9
84.6555,167
84.6569,893.4
84.682,529.3
84.6929,127.9
84.6948,1027.6
84.7105,175.9
84.7424,126.3
84.7453,18.7
84.7701,202.4
84.8143,149.3
84.8161,111.4
84.8311,131.6
84.8406,137.7
84.8518,88.4
84.8583,411.5
84.8591,123
84.8607,273.2
84.877,183.6
84.8905,126.4
84.9297,18.1
84.9344,723.8
84.9594,15208.7
84.9637,15.9
84.98,233.2
84.9989,118.4
85.0192,117.8
85.0281,3550.7
85.1033,72
85.1503,94.5
85.1642,94
85.1714,528.6
85.1835,93.8
85.1988,18.6
85.204,96.5
85.2214,414.9
85.2875,526.5
85.3203,93.2
85.3303,239.4
85.3409,142.1
85.3629,111.5
85.3833,178.3
85.3862,15.2
85.3947,102.2
85.4162,147.2
85.4341,764.6
85.4529,129.8
85.4898,130.1
85.5009,304.2
85.5171,234.7
85.5371,140.6
85.5435,170.6
85.5656,632.7
85.5728,212.9
85.6179,167.3
85.638,133.9
85.6542,140.8
85.6611,102.3
85.6823,140.3
85.6892,122.5
85.7466,146.5
85.7571,350.6
85.7578,509.5
85.7728,212.2
85.794,176
85.8001,278.4
85.8098,140.8
85.8389,16.4
85.841,158.6
85.8516,19.6
85.8847,118.2
85.8894,170.3
85.9147,271.3
85.9439,335.7
85.9451,19.5
85.9815,190
85.9976,170.9
86.0075,369.7
86.0394,258.4
86.0453,92.2
86.0598,28250.7
86.0962,103013
86.0997,208.6
86.1313,999.4
86.1545,176
86.1555,113.3
86.1778,18.5
86.1862,855.5
86.1944,248.7
86.207,725.6
86.2455,132.8
86.2567,130
86.2599,177.8
86.3142,252.2
86.3296,351.4
86.3574,1075.7
86.4097,245.9
86.4146,500.3
86.4152,72.5
86.4162,127.6
86.453,357.8
86.4549,120.1
86.4608,578.9
86.4714,18
86.4784,103.8
86.4866,557.4
86.5342,129.5
86.5472,347
86.5541,671.7
86.5617,677.7
86.6013,99.4
86.6194,239.9
86.6636,588.1
86.6723,17.6
86.683,357
86.7018,17.6
86.7123,282.6
86.7321,237.4
86.7348,674.3
86.7439,96.3
86.7473,444.8
86.7588,121.1
86.7899,262.5
86.7914,20.4
86.7991,18.8
86.8091,197.1
86.85,289.3
86.8775,180.3
86.8885,75.9
86.894,285.9
86.8954,114.1
86.9003,20.4
86.9066,17.8
86.91,18.6
86.9193,347.8
86.9482,456.4
86.9525,157.1
86.9644,317
86.9759,131.3
86.9841,488.6
86.9967,95.2
87.0191,89
87.0461,17.1
87.0995,1359.1
87.1181,167.7
87.1548,101.4
87.1741,20.6
87.1845,145.3
87.2136,208.4
87.2644,965.4
87.273,626.8
87.2806,81.5
87.2919,164.1
87.3077,266.1
87.332,16.7
87.334,147.6
87.3713,89.8
87.4071,101.9
87.4151,692
87.4287,131.2
87.4315,107.5
87.4383,675.3
87.447,112.7
87.4809,233.8
87.504,134.8
87.5275,248.2
87.5375,16.2
87.5469,736.5
87.5484,676.6
87.574,662.4
87.5774,101.6
87.6144,102
87.6163,183.6
87.6286,258.5
87.674,857.3
87.6967,717.1
87.7037,596.2
87.7213,19.2
87.741,422.5
87.7445,238.5
87.7542,420.9
87.7704,891.1
87.7721,360.7
87.8093,237.3
87.8653,158.4
87.888,655.7
87.9063,106.1
87.9201,178.8
87.9756,137.7
87.9944,766
88.0203,633.4
88.0391,5373.7
88.0407,115.8
88.0411,177.5
88.0414,198.4
88.051,883.6
88.0583,114.2
88.1619,615.2
88.2509,99.7
88.2689,464.6
88.2773,304.8
88.2993,137.6
88.3325,177
88.362,657.9
88.363,17.9
88.3869,119.9
88.42,18.4
88.4224,181.1
88.4283,143.6
88.4533,374
88.4675,609.5
88.4715,315.4
88.4955,195.7
88.5365,216.7
88.5745,238.4
88.591,99.5
88.6092,221.3
88.6219,193.4
88.6467,152.1
88.6595,908.3
88.6752,712.8
88.6796,721.7
88.7386,110.5
88.7584,1068.4
88.7607,263.8
88.7708,266.7
88.785,118.5
88.8575,1614.3
88.861,143.8
88.882,95.5
88.9051,17.6
88.9057,564.1
88.9521,65.2
88.9682,18.6
88.9786,460.1
88.9818,703.2
88.9839,580.4
88.9998,407.9
89.0047,325.4
89.0197,218.2
89.0404,17.3
89.075,119.1
89.089,135.9
89.091,356.8
89.098,491.2
89.168,221.1
89.1699,179.1
89.1925,699
89.2339,742.9
89.2466,152.6
89.2687,17.3
89.2757,358.8
89.316,364
89.3166,127.7
89.3235,694.3
89.3394,122.6
89.3684,100.4
89.3788,1033.4
89.3795,159.4
89.432,169.7
89.447,20.3
89.4631,115.3
89.4748,179.4
89.5245,698.5
89.5382,17.2
89.553,231.9
89.5673,99.1
89.5992,110.4
89.6004,87.6
89.6142,721.4
89.6303,108.3
89.6547,143.1
89.6837,123.8
89.7212,234.2
89.7645,130.3
89.7746,880.2
89.7966,172.4
89.8039,85.8
89.8184,500.4
89.8267,224.9
89.8549,200.3
89.8595,234.6
89.8653,748
89.8795,337.3
89.9008,151.4
89.9196,120.4
89.9288,1002.1
89.9353,86.5
89.9508,19.8
89.9635,354.1
89.9894,158.3
90.0037,18.1
90.0257,382.5
90.0476,192.8
90.0552,20.2
90.0981,641.2
90.1117,529.7
90.1139,94
90.1483,148.8
90.1513,405.3
90.1538,584.3
90.2266,95.2
90.2528,333.4
90.3002,110.4
90.3435,467.5
90.4205,21.5
90.4381,679.4
90.4396,735.6
90.4756,797.5
90.5296,1044.6
90.533,548.7
90.5428,163.7
90.5454,888.4
90.5506,239.7
90.5629,194.1
90.6181,411
90.621,168.3
90.6836,503.6
90.6971,363.1
90.7124,325
90.7147,102.1
90.7315,182.9
90.7398,731.1
90.7647,87.4
90.7895,162.8
90.8467,86.6
90.8658,120.6
90.8819,141.9
90.8879,167.8
90.903,65.7
90.9067,184.6
90.9176,449.9
90.9475,3075.1
90.9562,16.8
90.9661,163
90.9693,560.9
90.9764,5993.8
90.9919,181.3
91.0381,305.1
91.0539,1906.1
91.0644,115.8
91.0768,586
91.1294,890
91.1338,162.4
91.1925,333.2
91.2331,19.9
91.252,957.6
91.2616,112.6
91.2685,626
91.3093,206.3
91.3174,336.3
91.4476,370.7
91.4553,684.3
91.4628,601.2
91.4862,764.2
91.5032,83.8
91.56,211.4
91.5862,99.9
91.6016,211.9
91.619,168.7
91.6368,16.5
91.6477,101.1
91.6619,919.2
91.6689,20
91.671,495.3
91.7142,95.7
91.7309,485.8
91.7343,123.5
91.7516,489.9
91.7781,202.5
91.8312,172.1
91.8576,163
91.8785,191
91.8947,179.5
91.9039,307.9
91.9167,818
91.9435,610.7
91.9466,395.5
91.9479,23.1
91.9963,417.7
92.0137,17.5
92.0154,282.5
92.0261,166
92.0446,93.4
92.0494,197.1
92.0881,125.6
92.0917,137.4
92.1049,17.2
92.1292,342.6
92.1604,76.4
92.177,106.7
92.1996,122.2
92.2077,653.5
92.2223,373.3
92.2407,788.8
92.2544,348.6
92.2552,650.4
92.259,726.1
92.2889,285.6
92.2907,361.6
92.3342,480.6
92.3374,427.9
92.3579,21.7
92.3733,360.3
92.39,654.1
92.4073,322
92.4521,163.3
92.4526,152.8
92.5304,81.1
92.552,118.6
92.5524,136
92.5528,128.4
92.5771,17.2
92.6344,21.5
92.6487,99.8
92.7058,300.2
92.7378,862.7
92.8028,353.9
92.8168,317.5
92.8321,18.1
92.882,940.7
92.8918,87.6
92.9736,553
92.9838,18.3
93.0034,765.7
93.0125,459.3
93.0204,323.3
93.0327,682.7
93.0406,127.2
93.0697,20.1
93.1109,184.5
93.1198,888.6
93.1685,564.8
93.1735,107
93.1986,354.6
93.2192,416.2
93.3056,269.5
93.3378,558.1
93.3418,525.2
93.3899,575
93.3978,162
93.4114,247.2
93.4362,20.5
93.4518,106.3
93.4551,130
93.493,281
93.5167,889.8
93.538,90.3
93.5558,694.5
93.5792,401.4
93.5928,17
93.6554,127.2
93.6702,24.1
93.6753,234.7
93.69,154.6
93.7342,844.7
93.7392,107.3
93.7408,211.8
93.7412,210.7
93.7642,190.7
93.7663,80
93.8096,117.5
93.8197,141.5
93.8221,611.6
93.8287,105.5
93.8741,180.7
93.8894,126.4
93.893,19.3
93.9122,94.6
93.914,172
93.9282,769
94.0156,155.4
94.0202,16.9
94.0236,798.3
94.0363,92.5
94.0392,24.5
94.0398,48.7
94.0411,68564.3
94.075,145.5
94.097,136
94.1257,98.9
94.1361,680.7
94.1663,986.5
94.1716,658.2
94.2122,185.6
94.2472,132.8
94.3286,238
94.3303,180.3
94.351,20.2
94.4196,19
94.4313,495.8
94.4415,559.3
94.4524,97.4
94.5151,317.9
94.5378,336.4
94.5425,143
94.5496,271.4
94.5586,734.1
94.5722,78.1
94.5738,96.4
94.5977,17
94.6051,259
94.6919,105.6
94.7265,875.5
94.741,120.4
94.7434,17.3
94.7485,154.2
94.7687,123.3
94.7775,227.1
94.789,182.7
94.7905,117.7
94.8048,17.2
94.8243,158.1
94.8391,85.4
94.8555,266.3
94.8581,918.3
94.9108,534.2
94.9251,18.5
94.9258,577.7
94.9475,325.9
94.9503,18.6
94.9684,372.7
94.9695,180.6
95.0086,19.1
95.0134,17.7
95.0284,200.5
95.0357,23.5
95.0422,145.2
95.0445,1615.2
95.0462,38.4
95.0465,28.6
95.047,41.2
95.0489,394788.6
95.0609,106.9
95.0626,19.5
95.0852,262.4
95.0893,25.4
95.1029,401.1
95.104,124.2
95.1077,724.9
95.1106,156.1
95.1192,105.6
95.1814,474.9
95.2485,230.4
95.2757,526.6
95.2922,109.4
95.3326,110.3
95.3694,257.2
95.4419,900.8
95.4605,110.4
95.4636,761
95.5,505.7
95.5032,133.3
95.513,117.4
95.572,739.7
95.5768,196.6
95.6163,327.7
95.6196,142.2
95.6205,319.5
95.6503,531.7
95.6664,567.3
95.7003,120.8
95.7079,405.9
95.7413,375.3
95.8377,86.3
95.8402,90.7
95.8575,898.6
95.8857,251.4
95.9753,643.5
95.9845,83
96.0097,196.9
96.0523,19976.8
96.0726,85
96.0865,20.3
96.0909,559.4
96.096,109.8
96.1178,17.9
96.1212,85
96.1335,310.6
96.1411,103.1
96.2123,102.9
96.2894,272
96.3092,608.2
96.3589,169.2
96.4115,93
96.4211,151.8
96.5145,592.6
96.5457,153.4
96.547,91.9
96.5486,111
96.5554,154.8
96.5782,137.4
96.5898,102.3
96.6477,18.3
96.6531,184.1
96.6564,21.8
96.6693,753.5
96.7236,120.7
96.7925,644.7
96.8096,87.3
96.8348,660.6
96.8561,108.5
96.8589,709.9
96.8648,499
96.8892,569.6
96.9072,988.6
96.9167,199.1
96.9191,715.6
96.9216,116225.6
96.9374,101.8
96.9517,396.6
96.957,92
96.9646,86.5
96.9783,105.7
97.0074,142.9
97.0104,116.6
97.0191,439.3
97.0453,420
97.0557,41.8
97.0964,233.3
97.101,24.9
97.1523,135.3
97.1738,22.2
97.2035,186
97.2675,712.4
97.2842,716.5
97.3108,17.9
97.3224,260
97.3275,119.8
97.3339,321.1
97.3497,110.7
97.3535,107.4
97.3592,564.8
97.3765,477
97.3965,421.7
97.4441,699.1
97.4483,204
97.4667,101.1
97.4784,169.3
97.5227,402.8
97.6012,387.7
97.6458,98
97.6691,821.9
97.6762,506.6
97.6966,108.3
97.7061,147.3
97.7192,253.8
97.7305,81.6
97.7329,575.3
97.7727,195.2
97.7933,118.5
97.8278,542.4
97.8406,737.8
97.8616,167
97.8755,99.7
97.9121,104.5
97.9942,89.6
98.0188,125.9
98.0346,517.8
98.0472,386
98.0494,107.5
98.063,95.4
98.0968,552.7
98.2596,208.3
98.2611,158.8
98.2631,20.2
98.3174,121.4
98.3378,122.2
98.4186,164.8
98.4816,273.7
98.4871,811.3
98.5018,319.4
98.5172,288.7
98.5312,218.6
98.5354,161.8
98.5515,324.1
98.5586,19.2
98.5788,237.8
98.6026,207.1
98.6554,198.3
98.6796,568.3
98.7008,242.8
98.7066,601.7
98.7198,18.8
98.7698,229.6
98.7897,502.7
98.8427,649.2
98.8565,237.8
98.9045,110.9
98.9186,35043.3
98.9197,4901.1
98.938,241.5
98.951,299
98.9532,126.6
98.9595,171.9
98.9751,9028.7
98.984,29.9
99.0003,115.9
99.0267,85.6
99.0608,127.6
99.0661,132.5
99.0747,437.8
99.0842,894.5
99.0916,125.9
99.0993,166
99.1583,914.3
99.2176,104.3
99.2237,624.5
99.227,17.1
99.2554,380.6
99.2649,115.1
99.2755,473
99.2767,129.5
99.2824,94.6
99.2895,156.7
99.306,130.5
99.3191,179.9
99.331,138.4
99.3329,329.7
99.3456,87.9
99.3958,1062.6
99.4039,129
99.4072,142.2
99.415,846.1
99.441,110.1
99.4702,207.9
99.4749,238.6
99.48,855.7
99.5115,268.6
99.5986,88.3
99.6036,822.3
99.6388,22.7
99.6397,256.3
99.6621,19.4
99.7161,19.8
99.7314,136.8
99.7365,21.6
99.8329,315.9
99.8478,100
99.8707,696.8
99.8731,127
99.8827,246.2
99.9429,99.7
99.9498,837.7
100.0254,715.5
100.0832,371.3
100.0878,226.9
100.1047,165.2
100.1129,89.7
100.1573,135.6
100.1582,253.2
100.1807,107.4
100.2206,383
100.2634,949.2
100.3476,110.1
100.3509,840.8
100.395,104.5
100.4367,167
100.4406,361.5
100.4683,145.5
100.4817,131.2
100.5002,417.9
100.5173,17.5
100.5518,132
100.5703,510.7
100.5914,698.2
100.6486,88.7
100.6897,140.2
100.7086,574.2
100.7225,230.9
100.7281,746.2
100.756,643.7
100.7615,141.7
100.7684,19.9
100.7866,600.2
100.872,494.3
100.9,126.7
100.9041,227.4
100.9167,504.4
100.9183,395.4
100.9241,305.9
100.9633,544.5
100.9649,334.5
100.9916,114.5
100.9938,243
101.0293,325.6
101.0423,127.3
101.047,1322.6
101.0676,129.5
101.0707,1342.8
101.0836,179.7
101.0914,112.5
101.1264,554.6
101.1333,769.7
101.1613,295.8
101.2036,384.1
101.2657,164
101.2767,95.2
101.2795,90.2
101.3256,18.6
101.3556,192.2
101.4018,95.4
101.4524,232.5
101.4601,98.6
101.4667,22.1
101.5038,116.5
101.547,307
101.5531,156.2
101.5629,215.4
101.5894,385.1
101.6386,230
101.6568,152.3
101.6758,872.3
101.7537,18.7
101.7584,82.1
101.7774,20.9
101.7863,304.7
101.787,393.5
101.7884,89.5
101.8359,255
101.9025,649.7
101.9034,15.8
101.9289,230.3
101.9437,20.1
101.9461,1008.3
101.9575,125.8
101.9596,243.3
101.9635,210
101.9705,91.2
101.9989,505.8
102.0075,318.4
102.0114,123.6
102.0142,180.2
102.0167,564.8
102.0272,124.2
102.0548,3059.3
102.0772,670.2
102.1219,579.3
102.1261,94
102.1387,18.7
102.1466,455.2
102.1677,107.9
102.1822,403.3
102.1885,322.9
102.1947,111.7
102.1988,318.6
102.2006,148.7
102.208,153.1
102.2273,230.2
102.2429,448.1
102.2555,502.8
102.289,536.4
102.2928,595.4
102.2951,660.8
102.3202,482.5
102.3339,100
102.339,251.7
102.3645,161.7
102.372,17.9
102.3799,135.4
102.3901,420.8
102.4559,127.3
102.4602,138.9
102.4614,106.6
102.47,133
102.5288,96.2
102.5361,122.3
102.5738,371.8
102.5907,88.1
102.6245,388.4
102.6274,134.9
102.6372,193.6
102.6619,348.8
102.7118,17.3
102.7296,89.4
102.7342,115.4
102.7354,390.3
102.7546,109.2
102.7585,113.9
102.7742,313.3
102.8094,96.2
102.8285,343.4
102.8633,195
102.8947,20.1
102.9112,507.4
102.9159,116
102.9233,102
102.9474,50.2
102.9507,100.4
102.9679,171.3
102.9701,402.9
102.9839,37.8
103.0257,755.7
103.0379,199.7
103.0482,754.2
103.0559,200.7
103.0636,347.4
103.0727,179.1
103.077,96.1
103.0792,132.1
103.0824,176.2
103.1119,689.7
103.1353,17
103.1492,138.5
103.1719,91.6
103.1986,945.7
103.2183,141
103.2491,808.2
103.2603,361.5
103.2732,548.2
103.2847,83.3
103.2912,116.6
103.3213,750.3
103.3955,599.6
103.4708,359.4
103.5139,566.2
103.517,140.1
103.5228,279.6
103.5237,132.3
103.5475,302
103.5625,106.8
103.5776,102.4
103.5951,123.3
103.6214,133.3
103.6249,380.6
103.6307,110.4
103.6343,399.5
103.6441,118.2
103.66,1120.1
103.6838,104
103.6874,357.9
103.7249,124.2
103.7325,88.1
103.7398,135.4
103.7498,158.5
103.7565,997
103.8914,134.9
103.894,171.7
103.911,787.4
103.9241,856.1
103.9559,21.5
103.9783,586.8
103.9787,567.3
103.9844,194.3
104.0182,133.1
104.0322,484.5
104.0451,523.5
104.0562,127.1
104.0783,94.4
104.0801,804.3
104.0861,243.7
104.1068,292122.2
104.1233,104.1
104.1298,128.6
104.1677,95.9
104.184,751.3
104.2354,466.2
104.2456,124.4
104.2567,889.2
104.2585,22.3
104.2855,170.3
104.3156,172.3
104.345,156.5
104.5082,120.9
104.5199,128.8
104.5523,163.9
104.5868,103.7
104.5945,238.1
104.5986,88
104.6361,572.7
104.6682,540
104.6736,378.4
104.6981,197.2
104.7105,192.6
104.7654,150.7
104.7714,95
104.7727,163.4
104.7909,297.5
104.807,739.1
104.8202,581.4
104.8311,262.8
104.8488,498.4
104.884,295.4
104.8898,165.4
104.8924,198.3
104.9479,161.1
104.9632,4397.4
104.9921,479.7
105.0374,461.1
105.0432,22.3
105.0445,37840.2
105.0502,122.4
105.1101,10393.2
105.1182,101.6
105.1457,19.5
105.1853,711.7
105.1959,678.1
105.1997,120.2
105.2209,453.4
105.2464,126.6
105.2678,125.8
105.327,711.5
105.382,677.8
105.4009,92.2
105.4209,393.8
105.487,170.9
105.5177,18.5
105.5746,554.3
105.6074,121.3
105.6602,189.9
105.6714,155.1
105.6803,96.1
105.6917,320.4
105.6953,594.5
105.7695,91
105.8159,144.9
105.836,236.1
105.8499,107.4
105.8644,149.2
105.9103,664.8
105.9154,108
105.9163,95.1
105.9639,20
105.9703,30.1
106.0017,188.8
106.0401,145.1
106.048,552
106.0634,148.7
106.0655,102.7
106.0677,143
106.0734,498
106.0798,130.4
106.0869,735.2
106.0933,95.6
106.1548,154
106.1609,319.4
106.1767,85.6
106.1777,102.5
106.2114,96.6
106.2278,335.7
106.2443,247.1
106.2747,201.4
106.2764,420.6
106.2855,88.8
106.2997,93.5
106.3341,394.5
106.4165,313.2
106.4256,125.9
106.4652,355.6
106.4674,671.6
106.4841,95.5
106.5182,111.2
106.5337,79.7
106.5584,155
106.6168,387.2
106.6208,105.9
106.625,1037.4
106.683,153.9
106.6913,628.6
106.715,149.9
106.7456,133
106.8262,355.3
106.8292,193.2
106.8307,284.6
106.8768,150.8
106.9221,18.7
106.936,269.3
106.9433,18.2
106.9504,3159.4
106.9535,201.6
106.9622,889
106.9636,122.9
106.9918,23.3
106.997,493.4
107.0042,459
107.0282,40.9
107.0489,463.9
107.0851,97.9
107.1512,553.3
107.1602,93.8
107.1929,306.7
107.2245,468.9
107.2371,173
107.261,100.7
107.2671,138.9
107.3062,92.7
107.3557,85.4
107.3914,17.1
107.4194,519.6
107.4347,732.9
107.4465,851.1
107.4824,581.1
107.4856,20.2
107.5147,126.2
107.5869,136.6
107.5885,19.7
107.63,262.8
107.7079,599.2
107.7088,18.2
107.7261,129.2
107.7325,625.1
107.7434,114.6
107.7511,163.4
107.7563,613.4
107.7645,92.5
107.7749,83.8
107.7813,121.2
107.7823,137.4
107.8118,17
107.8278,735.9
107.8305,300.5
107.8743,116
107.8891,94.5
107.9288,121.3
107.9458,541.2
107.9486,93.7
107.9511,16.8
107.9824,637.1
108.0099,655.7
108.0229,515.1
108.0365,490.5
108.0464,653.6
108.0726,319.5
108.1441,194.1
108.1493,316.8
108.1758,95.2
108.197,115.6
108.2461,20.6
108.2559,568.3
108.2608,789.3
108.3335,114.9
108.3358,144.6
108.3621,21.6
108.3791,143.1
108.4848,113.4
108.4971,1010.9
108.5498,178.2
108.5903,102.7
108.6086,571.8
108.614,93.6
108.6441,113.2
108.6571,18.7
108.6776,17.6
108.7481,84.1
108.7491,458.8
108.7762,119.7
108.8131,391.3
108.8246,815.8
108.8449,386.3
108.8617,133.7
108.8961,269
108.9519,148
108.9581,87.2
108.9637,666.1
109.0106,30
109.0245,656.2
109.0404,791.8
109.0646,72111.1
109.08,125.3
109.0875,647.5
109.0891,245.4
109.101,22.6
109.1096,144.6
109.1428,117
109.1683,124.1
109.1749,949.9
109.2389,108.5
109.444,339.1
109.4552,133.4
109.4783,93.2
109.5446,118.2
109.584,199.4
109.588,333.3
109.6261,752.7
109.6334,603
109.7109,254.8
109.757,142.5
109.7693,374.8
109.804,950.5
109.8245,156.6
109.8576,109.4
109.8688,216.2
109.8745,503.3
109.8767,625.1
109.8889,117.8
109.8949,17.3
109.9177,1089
109.9279,95.7
109.9317,174.3
109.9578,178.5
109.9821,100.2
109.9845,240.5
110.0458,730.1
110.0547,100.7
110.0596,139.3
110.068,3458.6
110.0711,511.3
110.079,188.5
110.1283,190.2
110.1389,420.6
110.1703,519.5
110.1819,128.1
110.1866,275.3
110.2526,19.3
110.278,815.5
110.2836,401.2
110.2854,209.7
110.2974,866.1
110.3354,120.2
110.3798,203.8
110.4054,83.2
110.4639,331.5
110.5305,634.7
110.5765,863.4
110.5846,310.2
110.6171,750.5
110.6904,124.4
110.7237,125
110.8195,77.9
110.9205,321.3
110.9443,18.9
110.9618,140.3
110.9779,1124.1
110.98,455.6
110.982,114.2
111.001,170
111.0231,294
111.0254,369.5
111.0304,18.4
111.0351,114
111.0391,555.4
111.0439,205.3
111.0918,1050.6
111.1022,16.7
111.1144,669.1
111.1883,104.2
111.2089,82.5
111.2374,459.5
111.3026,16.9
111.3092,105.5
111.3103,142.1
111.3124,231.2
111.3354,21.3
111.3447,176.4
111.3541,107.5
111.357,280.8
111.4139,122.9
111.4177,260.5
111.4407,841
111.4576,235.2
111.464,143.5
111.4729,167.1
111.5132,849.6
111.5213,1055.4
111.5607,134
111.5746,108
111.6249,144.3
111.6425,389.2
111.6439,19.4
111.7036,178.3
111.725,99.9
111.7458,159.8
111.7497,93.5
111.8284,338.4
111.8468,392.4
111.8542,197
111.8684,639.3
111.8752,315.6
111.8811,210.2
111.9133,301.5
111.9723,252.4
112.0492,362.2
112.0554,680.4
112.0571,80.9
112.0767,124
112.1396,18.4
112.2033,362.8
112.2427,357.9
112.2899,90
112.3361,542.7
112.3372,829.3
112.3388,164.9
112.358,20.6
112.3716,17
112.4092,413.5
112.4128,399.9
112.4173,185.1
112.4376,156.2
112.4677,208.2
112.5097,376.9
112.5252,114.7
112.5462,208.3
112.5605,432.4
112.5929,134.5
112.6025,281.1
112.625,721.6
112.6368,136.7
112.6553,358
112.6567,173.6
112.6703,120.2
112.7345,332.7
112.7945,127.5
112.8028,19.6
112.8127,121.3
112.8595,190.9
112.8806,204.9
112.8955,409338.5
112.9108,999.7
112.9248,279
112.9447,132.4
112.974,272.1
113.0225,932.6
113.0987,263.7
113.1072,981.7
113.1281,175.9
113.2007,461.3
113.2375,176.9
113.2392,170.5
113.2588,104.9
113.3085,17.7
113.3316,101.3
113.3492,201.2
113.3636,17.8
113.372,527.2
113.4047,136.8
113.4859,16.9
113.5057,649.5
113.519,330.8
113.5296,115.2
113.5427,116.1
113.545,134.9
113.5648,17.1
113.578,104.2
113.5797,92.6
113.5857,21.4
113.6293,274.7
113.6439,161.5
113.6552,16.9
113.7004,1070.5
113.7189,189.5
113.7821,980.1
113.7981,521.9
113.8276,199.9
113.8429,115.8
113.8784,239.4
113.9366,221.1
113.9378,884.2
113.9749,115.6
114.0401,227.3
114.044,672.6
114.0548,46369.4
114.066,476.6
114.0729,107.1
114.081,141.3
114.1077,271.5
114.122,19.2
114.1662,123.2
114.1679,173.8
114.1948,140.9
114.2061,219.7
114.2137,512.1
114.2292,804.1
114.2441,894.5
114.2549,98.4
114.3476,80.8
114.349,251.2
114.4228,1009.4
114.4558,109.7
114.4568,95.4
114.4676,17.8
114.5571,17.8
114.5961,140.2
114.6101,800.8
114.6198,135
114.6731,223.2
114.7199,511.5
114.7284,157.1
114.7575,802
114.7614,19.6
114.7726,454.5
114.7758,96.9
114.8641,109
114.8764,618.2
114.8926,125557.8
114.9081,274.8
114.9481,554.9
114.9783,175.8
115.0407,91.4
115.0582,101
115.0607,524.1
115.0779,1132.5
115.085,168.1
115.0864,438.9
115.0983,809.4
115.1001,152.4
115.27,937.9
115.272,121.9
115.2736,221.8
115.2955,321.5
115.3835,157.1
115.3982,239.7
115.4125,233.2
115.4275,577.7
115.4464,84.2
115.4651,179.2
115.4702,746.4
115.5207,305.3
115.5499,26.1
115.5572,148
115.5875,1046.1
115.7146,145.4
115.7293,443.6
115.7495,184.8
115.8378,356.7
115.8461,210.5
115.8612,145.1
115.8853,203.6
115.9294,363.3
115.9434,154.9
115.9792,543.8
115.9911,121.9
116.005,118.3
116.0119,881.1
116.0368,240.9
116.0375,128.6
116.0411,285.4
116.0705,2183.2
116.0777,660.1
116.0962,115.4
116.0987,94.4
116.1008,578.4
116.111,95.4
116.1459,22.4
116.1618,270.1
116.2143,16.7
116.2263,23.8
116.2354,165.4
116.2476,281.5
116.2518,171.3
116.3012,346.4
116.3263,18.8
116.3317,153.4
116.3446,711.1
116.3469,142.1
116.3611,223.2
116.3822,280.7
116.3845,146.7
116.4132,485.1
116.4543,251.8
116.4658,585.9
116.5264,736
116.5696,689.6
116.5709,190.5
116.5887,132.7
116.6003,250.8
116.647,343.5
116.6707,375.5
116.7118,760
116.7129,316.3
116.7282,725.6
116.7302,1079.3
116.767,300.9
116.8165,281.3
116.8285,84.7
116.8435,110.7
116.8739,183.4
116.8907,12898.8
116.9084,570.2
116.9103,129.7
116.9205,266.3
116.9363,366.2
116.9632,171.4
116.9728,159.3
116.9788,125.4
116.9858,558
117.067,246.4
117.0698,24.7
117.0945,131.3
117.1108,91.9
117.1197,586.5
117.1381,18.3
117.1582,132.4
117.1936,941.1
117.1999,17.6
117.2201,18.4
117.2276,208
117.2831,564.3
117.3013,212.9
117.4212,168.3
117.5081,552.3
117.5691,194.8
117.5747,397.9
117.6258,225.1
117.6398,337
117.6581,568.7
117.674,172.3
117.6935,947.3
117.7367,489.8
117.7439,554.3
117.7487,830.1
117.7867,180
117.8021,103
117.8098,100.3
117.8148,451.7
117.8241,213.2
117.9173,728.4
117.9396,18.9
117.9846,177.2
118.0121,92.1
118.0257,19.5
118.0341,634.8
118.0347,618.6
118.051,132.8
118.0538,247.6
118.0652,159.1
118.0863,447.4
118.0935,372.7
118.1274,681.7
118.1566,209.4
118.2006,316.7
118.2532,18.8
118.2755,327.7
118.3095,897.8
118.3291,189.2
118.3493,557.6
118.3696,120.3
118.4059,171.3
118.4209,360.2
118.4362,184
118.4472,537.2
118.4567,491.3
118.477,131.6
118.5015,285.3
118.5135,670.5
118.6127,141.1
118.6836,122.4
118.7098,113.8
118.7509,150.5
118.7894,908.7
118.8085,19
118.8486,91
118.8553,125
118.9251,158.7
118.9425,622.2
118.9659,130.8
118.9725,142.1
118.9789,951
118.9831,17
119.0551,247.1
119.0582,252.5
119.0663,642.2
119.1061,661.6
119.1484,229.7
119.1572,513.8
119.1712,143.2
119.185,17.6
119.2309,19.2
119.2778,114.3
119.2791,17.4
119.2887,491
119.3174,281.9
119.348,123.5
119.37,502.5
119.3763,551.1
119.4411,567
119.4649,240.9
119.4823,610.5
119.5507,119.7
119.5617,106.7
119.5887,739.5
119.6074,492.1
119.6102,82.8
119.6351,407
119.6557,373
119.6631,125.3
119.6809,152.8
119.7024,387
119.8351,284.9
119.8705,426.9
119.9013,243.6
119.9312,98.6
119.9875,1044.1
120.0031,1882.3
120.0566,102.2
120.0806,14792.7
120.107,819.3
120.121,649.1
120.1226,712
120.1288,16.9
120.1582,128.6
120.1746,19.8
120.2311,83.3
120.2339,542.5
120.3169,697.4
120.3418,23.6
120.3452,1086
120.3482,429.5
120.3669,143.9
120.3869,132.4
120.4155,172.6
120.4439,112.2
120.4887,535.6
120.5064,517.8
120.5828,420
120.5888,547.7
120.612,360.8
120.6129,216.8
120.617,97.5
120.6482,136.8
120.6667,170
120.6678,101.2
120.6981,632.8
120.735,378.2
120.7538,17.8
120.7816,584.8
120.8071,188
120.8601,984.1
120.8624,545.7
120.9271,143.6
120.9661,1155
120.9728,366.3
120.9793,26.2
120.9807,99.6
120.9977,131.8
121.0075,257.9
121.0125,156.5
121.0284,502
121.0621,266.5
121.0646,18.9
121.0722,579
121.0726,503.8
121.0733,496.2
121.0838,180.7
121.0936,128.3
121.1011,25.2
121.2111,177.4
121.2146,17.1
121.2434,178.8
121.251,19.3
121.2562,221.6
121.2612,338.4
121.3711,167
121.4065,163.6
121.5265,571.3
121.5336,150.4
121.5531,24.7
121.5568,224.6
121.558,221.5
121.5777,140.2
121.5801,85.3
121.6021,174.4
121.6511,126.2
121.7012,162.4
121.7207,131.6
121.725,726.8
121.7631,794.7
121.7701,666.8
121.7882,82.5
121.9202,429.3
121.9379,128.2
121.9434,387.2
121.9602,202.1
122.0459,909.9
122.0828,17.2
122.1916,320.4
122.1955,100.3
122.2201,706.9
122.2779,87
122.2825,838.2
122.3198,546.3
122.3758,222.5
122.3774,116.3
122.4396,102.9
122.451,88.5
122.458,243.6
122.4614,111.6
122.4824,203.5
122.5061,170.2
122.5173,329.6
122.5491,97.9
122.5565,660.7
122.5703,19.7
122.6086,148.1
122.7971,184.5
122.8075,398.1
122.8124,92.9
122.8768,189.9
122.9205,1054.3
122.9244,19083.4
122.9295,24.7
122.943,271.8
122.9463,208.7
122.9738,198.8
123.0028,351.5
123.039,135.3
123.0672,198.9
123.0802,25.3
123.0944,133.6
123.1167,26.6
123.1508,333.2
123.1653,18.5
123.1976,108.3
123.252,20.1
123.259,97.5
123.2639,284.2
123.2859,95.7
123.309,171.1
123.3258,224
123.3855,864.7
123.3974,318.9
123.4547,214.4
123.463,122.7
123.4728,131.8
123.474,130.5
123.5174,263.7
123.5239,18.3
123.5406,513.6
123.5461,23.8
123.5473,20.8
123.5867,150.6
123.6309,320
123.6902,18.7
123.7063,125.8
123.7721,823.3
123.8311,156.3
123.8328,20.7
123.9214,344.7
123.9921,111.8
124.0083,196.3
124.0317,221.5
124.0345,261.5
124.0368,270.4
124.04,22.1
124.046,91.4
124.1118,18.9
124.1167,489.7
124.1337,96
124.1615,386.3
124.2159,18.6
124.2731,175.6
124.3065,145.7
124.362,17.9
124.3945,101.6
124.405,106.5
124.408,205.9
124.4088,154.4
124.4183,797.8
124.5679,127.4
124.6043,386.9
124.613,559.4
124.6551,629.7
124.6898,411.6
124.709,492.9
124.721,172
124.7323,480.8
124.7405,247
124.747,116.4
124.7589,111.9
124.857,195.7
124.8721,722.9
124.9296,18.5
124.9427,116.9
124.975,523.8
124.9997,1708.6
125.0054,956.8
125.0388,217.1
125.0503,355.6
125.0596,23.5
125.07,191
125.0958,20.2
125.1072,127.7
125.1225,20.6
125.1445,143.4
125.1824,18.5
125.198,160.4
125.2103,120.7
125.2683,334.3
125.2708,402.8
125.2719,144.4
125.3703,218.6
125.3737,137.8
125.3857,110.8
125.3922,366.8
125.4337,227.4
125.4588,181.6
125.5093,711.4
125.5712,640.3
125.6047,588.1
125.6139,144.2
125.6286,95.3
125.6424,19.6
125.7561,265.2
125.8192,169.7
125.8492,18.3
125.9888,228.9
125.9997,484.6
126.0118,146.2
126.0216,339.5
126.0398,113.7
126.0623,827.6
126.0788,20.4
126.1161,122.1
126.1571,736.9
126.1659,169.7
126.1885,117.5
126.2718,87.7
126.3418,179.8
126.3624,91.5
126.4666,752.5
126.4805,110.3
126.4885,20.6
126.5098,181.6
126.5118,20.5
126.5129,112.5
126.5244,202
126.5772,156.4
126.5813,97.3
126.6016,221.2
126.6109,131.2
126.6182,549.8
126.6192,184.3
126.6278,568.4
126.6298,220.8
126.6872,263.5
126.722,136.7
126.7406,562.1
126.7772,273.6
126.8554,18.9
126.8865,747
126.8914,356.2
126.9419,214.9
126.9441,17.7
126.9461,222.4
126.9958,132.4
127.0477,214.1
127.1168,541.9
127.1727,100.9
127.1826,95.6
127.2006,682.4
127.2165,150.3
127.2229,423.1
127.2254,109
127.2292,21
127.2595,106.9
127.2816,1014.9
127.3463,815.2
127.3528,284.6
127.4628,117.5
127.4759,17.9
127.4984,575.8
127.5188,360
127.5253,578
127.5329,340.1
127.5343,737.8
127.5995,102.2
127.7171,106.4
127.7184,148
127.7893,17.8
127.7901,18
127.9119,255.3
128.0629,131.6
128.0784,1032.1
128.0951,386.8
128.1428,364.9
128.2829,516.5
128.289,114.2
128.297,234.3
128.2984,702.2
128.3428,234.3
128.3664,180.5
128.3856,558.2
128.4288,105.1
128.4624,103.4
128.4645,89.6
128.4747,369.1
128.5044,104.1
128.5201,379.1
128.5287,25.3
128.6115,565.8
128.6252,127.2
128.6696,271.5
128.6759,681.8
128.6798,242
128.7133,926.1
128.7314,18
128.7362,1028.5
128.7703,166.7
128.7897,1199.4
128.8964,215.4
128.9199,710.5
128.9459,577.9
128.9586,845.1
128.9637,365.9
128.9659,134.5
128.9927,86.6
129.001,168.6
129.0106,135.2
129.0444,526.2
129.1064,117.8
129.1123,17.2
129.1161,159.2
129.1231,577.1
129.1275,277
129.1308,173.5
129.1344,250.8
129.1651,176.1
129.18,538
129.2277,20.9
129.2425,154
129.3083,114.4
129.3967,738.7
129.4026,19.5
129.4495,111.7
129.4663,119.2
129.4803,564.5
129.5286,18.4
129.5399,107.3
129.5708,758.6
129.5906,124.8
129.6121,704.4
129.6388,499.6
129.6537,183
129.6808,122.3
129.6986,279
129.7529,264
129.8511,681
129.8874,375.7
129.9059,85.8
129.9571,603.3
129.9585,196.6
129.9794,217.3
129.9949,219.4
130.001,16.8
130.0055,186.9
130.026,111
130.0478,91.2
130.0498,9386.4
130.0795,670.7
130.1481,1148
130.1788,489
130.2348,261.2
130.2451,127
130.3346,381.6
130.4198,21.6
130.4239,600.3
130.4424,19.4
130.5437,177.3
130.6346,96.5
130.6416,365.5
130.6739,93.3
130.7075,263.8
130.7498,209.8
130.7896,1191.1
130.8549,291.6
130.8628,97.5
130.9033,195.7
130.9123,602.9
130.9789,27.9
131,110.6
131.0251,187.2
131.1231,130.1
131.1709,465.3
131.2388,933
131.3067,425.1
131.3165,321.3
131.3627,169.5
131.3959,257.1
131.4128,94
131.4669,89.7
131.5023,118
131.534,148.6
131.5408,571.6
131.5608,367.6
131.6242,177.3
131.6371,537.7
131.6804,20.3
131.7949,155.6
131.8226,672.4
131.8327,411.2
131.9186,371.4
131.9613,19.9
132.0031,31230.4
132.0654,77878
132.0714,245.8
132.0766,1437.3
132.1121,780
132.1131,124.8
132.1224,200
132.1957,856.7
132.2262,221
132.3216,377.7
132.3677,355.2
132.4131,135.2
132.4145,87.4
132.4272,180
132.457,398.5
132.4642,196.4
132.4746,17.9
132.5199,22.9
132.5236,91.3
132.5262,187.5
132.5383,321.4
132.5929,172.9
132.6032,203
132.6618,718.9
132.6881,100
132.6947,380.2
132.75,118.2
132.8434,170.5
132.8657,308
132.9026,24.4
132.9085,146.7
132.9129,181.4
132.9163,1007.1
132.9436,146.2
132.9481,176.8
132.9581,709.2
132.9605,112.3
132.9695,79
132.9854,96.2
132.9871,2389.6
133.0063,239
133.0688,2545.9
133.0859,16.5
133.097,28159.1
133.1403,120.6
133.1768,366.2
133.1849,153.1
133.1861,163.6
133.1866,140.2
133.2668,104.6
133.3358,146.8
133.369,135.1
133.3784,196.6
133.4361,96.2
133.4491,398.5
133.5199,16.6
133.5299,915
133.542,216.8
133.6047,653.9
133.6164,95.1
133.6182,279.2
133.6242,1146.2
133.6539,165.9
133.6571,123.8
133.7099,139.2
133.731,187.1
133.7628,18.8
133.7788,231.1
133.8342,536.5
133.8997,176.1
133.9116,128.9
133.9588,22.2
134.0133,93.4
134.0187,5414.9
134.0461,252.9
134.0806,19.3
134.1016,779.6
134.1176,459.7
134.1292,145.8
134.2251,103.3
134.2324,96.3
134.2522,367.1
134.2661,20.6
134.274,628.4
134.3335,776.3
134.3367,101.5
134.3817,109.3
134.4087,333.3
134.4263,115.9
134.5022,175.5
134.5368,191.1
134.6249,612
134.6273,153.5
134.6312,630.6
134.6344,343.8
134.6625,710.5
134.6735,360
134.6766,418.2
134.7265,554.5
134.7921,108.7
134.8109,20.4
134.9425,180.9
134.9556,170.9
134.9737,24.1
134.9852,147.9
134.9891,136.4
134.9964,67.6
134.9992,229.5
135.0027,55456
135.0638,366.5
135.0726,555.4
135.0968,147.8
135.1049,18.9
135.1167,118.1
135.1535,227.1
135.1919,108.9
135.2745,154.5
135.2819,101.9
135.3263,135.7
135.3304,110.6
135.3354,782.9
135.3746,140.1
135.3783,440.8
135.4332,538.5
135.451,101.5
135.4702,125.5
135.5135,631.4
135.5284,581.7
135.6262,90
135.6374,317.3
135.6489,914.6
135.6787,152.3
135.6903,224.3
135.6994,116
135.722,621.7
135.7494,18.5
135.7557,19
135.7776,18.6
135.7898,900.7
135.8533,444.4
135.9585,626.3
135.977,586.3
135.9815,22
136.0209,17.1
136.0278,559.1
136.048,4156.3
136.0617,25.5
136.0755,8161.4
136.0942,168.6
136.0979,179.6
136.1383,124.3
136.1559,351.2
136.1949,275.4
136.274,225.3
136.3335,95.9
136.3413,411.6
136.3587,123.2
136.3725,179.5
136.373,180.8
136.5281,616.7
136.548,140.5
136.5597,544.2
136.5733,227.3
136.5763,141.5
136.5971,746.2
136.5987,779.4
136.6052,149.7
136.6211,776.7
136.6578,17.7
136.7265,320.3
136.7301,354.7
136.7471,17.7
136.7531,89.2
136.756,136
136.7648,203.2
136.8522,550.9
136.8746,924.1
136.8846,98.3
136.953,128.6
136.9732,124.1
136.9827,358.9
136.9841,722.2
136.9894,61.1
137.0399,101.2
137.1098,17.8
137.1255,147.6
137.1386,148.5
137.1532,79.6
137.1946,120.5
137.2439,170.5
137.2503,143.5
137.2742,977.7
137.3302,341.3
137.332,427.6
137.3539,95.6
137.4038,18.8
137.4193,19.8
137.4508,1012.9
137.4947,146.8
137.5452,142.3
137.5639,197.4
137.6075,87.9
137.6404,781.2
137.6791,149.6
137.7114,394.9
137.7957,89.5
137.81,324.4
137.8195,18
137.8567,139
137.8588,133.6
137.8702,1220.6
137.9652,158.7
137.9686,221.4
138.0137,18.5
138.0196,118
138.0428,183.8
138.0524,4082.6
138.0955,226.6
138.0962,559.1
138.0968,515.9
138.2097,185.4
138.2439,188.1
138.2746,17
138.3157,161.2
138.3235,349.9
138.3432,136.6
138.4054,591.4
138.4505,103.8
138.5186,161.8
138.6623,656.4
138.7076,263.2
138.7406,84.5
138.7613,82.5
138.8721,176.4
138.8817,512.7
138.9064,2528.6
138.9162,726.3
138.9486,784
138.9534,142.2
138.9611,264.8
138.9643,113.5
139.0111,587.7
139.0366,1001.1
139.0557,210.2
139.0997,122.3
139.1474,637.8
139.1903,141.7
139.1981,139.6
139.3432,77.4
139.3473,116.4
139.353,102.9
139.3733,19.7
139.4408,141
139.4911,603.8
139.4972,815.6
139.5072,337.2
139.5524,103.9
139.5852,19.7
139.6566,393.8
139.6627,162.4
139.6919,402.8
139.6939,616.2
139.7412,168.9
139.8042,121.4
139.8452,209.7
139.8674,398.6
139.9669,149.9
139.9739,356.7
139.989,556
140.008,125.6
140.0164,4106.5
140.044,320.1
140.0459,350.1
140.068,1702.2
140.0926,92.5
140.1104,967.4
140.117,18.9
140.1786,21.6
140.1967,381.3
140.2057,153.9
140.2405,179.2
140.3436,159.1
140.3599,642
140.3947,280.5
140.4148,125.3
140.435,127.2
140.5781,156.9
140.727,91.5
140.8348,567.5
140.8482,132
140.8591,211.4
140.8823,148.6
140.8876,165.5
140.893,92
140.9034,457.6
140.9072,107.2
140.9352,647.3
140.9714,17.9
140.99,21.6
141.0004,19899.3
141.0155,19.1
141.0198,157.5
141.0536,193.9
141.0766,138.7
141.0943,230.6
141.1028,105.3
141.1151,817.5
141.1352,882.5
141.1522,500
141.2299,85
141.2488,117
141.269,437.7
141.2813,19.3
141.339,391.1
141.3422,206.6
141.3652,356.2
141.3985,22.4
141.4688,216.8
141.4847,616.1
141.5574,19.3
141.6244,126.5
141.7399,345.3
141.7635,542.5
141.7835,93.7
141.8677,181.3
141.8767,534.7
141.9063,307.4
141.9193,18.7
141.9355,219
141.9949,222.8
142.0006,1215.6
142.0038,349.9
142.0121,136.4
142.0843,18.4
142.1508,289.4
142.2242,220.3
142.2495,368.2
142.2888,80.3
142.3045,215.7
142.3223,118
142.3464,275.5
142.3736,216.5
142.4152,420.8
142.4236,135.2
142.4454,191.9
142.491,595.9
142.6383,128.2
142.6595,116.5
142.6758,123.5
142.7212,308.3
142.7963,132.5
142.8276,92
142.9296,180.6
142.9687,653.9
142.9702,366.6
142.9899,200.6
142.9962,204.9
143.0172,238.5
143.0187,766.1
143.067,132.8
143.0755,188.8
143.0813,462.5
143.1361,180.3
143.1446,173.7
143.1977,94.9
143.2427,403.2
143.3053,108.6
143.3881,93.2
143.3965,657.9
143.4313,97.4
143.4396,101.9
143.4703,194.7
143.5788,1354.2
143.6187,363.3
143.6541,260.8
143.6944,582.4
143.7108,108.9
143.7131,254
143.7279,243.7
143.7422,98
143.7955,550.3
143.811,158
143.8272,302.5
143.869,219.5
143.9324,300.6
144.0106,1058.9
144.0125,18.1
144.0478,110.8
144.0753,367.8
144.0881,687.9
144.1232,187.6
144.1349,143
144.1505,952.9
144.1536,118.8
144.1716,108.6
144.2375,374
144.313,484.9
144.3299,365.9
144.354,190.7
144.3661,17.4
144.4002,174.3
144.51,162.1
144.5108,183.7
144.5522,982.7
144.5972,311.5
144.6514,361.5
144.6878,325.5
144.7454,154.2
144.7578,413.6
144.8085,976.2
144.8398,221.8
144.8471,121.6
144.8914,653.8
144.9072,824.3
144.929,587.6
144.9469,78.5
144.9564,630.4
144.9807,928
144.9944,55
144.9962,757.3
145.1081,142
145.1198,87.2
145.1253,227.7
145.2078,93.4
145.2875,108.7
145.3269,235.3
145.3999,214.7
145.477,748
145.4842,417
145.509,381.4
145.5223,257.6
145.5696,244.5
145.5945,304.1
145.6645,361.4
145.731,79
145.7355,130.6
145.8753,170.6
145.9168,1255
145.9268,104.4
145.9634,306.5
145.9663,28.3
145.988,546.8
145.9981,1146.9
146.0124,2165.9
146.0188,21005.2
146.0266,179.1
146.039,105.8
146.0717,103.4
146.0963,23.1
146.1567,18.2
146.1946,495.9
146.2108,108.7
146.3046,102.8
146.331,221.7
146.3378,127.6
146.3659,101.7
146.3891,210.7
146.397,18.7
146.4496,575.9
146.5213,217.2
146.5477,559
146.5989,148.7
146.7699,129.8
146.7851,16.4
146.8077,232.8
146.8681,182
146.8774,109.2
146.9052,40.3
146.956,366.3
146.9742,49.4
146.9817,94134.7
146.9909,23.4
147.0217,108.5
147.0453,101.9
147.0529,596.5
147.0763,63443.9
147.0869,212.1
147.089,499.7
147.1127,30713.1
147.1167,564.7
147.1685,130.5
147.2107,17.5
147.2161,119.2
147.2793,558.7
147.3092,173.1
147.5225,302.1
147.5333,91.7
147.5516,160.2
147.558,125.1
147.5666,831.7
147.5719,316.5
147.6069,583.7
147.6204,186.6
147.6684,81.7
147.705,16.9
147.7199,322.2
147.7386,135.7
147.8166,329.8
147.8318,203.8
147.8539,965
147.8786,273.7
147.8804,126.4
147.8827,184.2
147.9611,705.3
147.9714,607.4
147.9786,102.4
147.9929,18.5
148.0366,630
148.0717,156.4
148.112,22.3
148.1154,91.9
148.1266,306.9
148.3014,191
148.321,168.9
148.33,637.3
148.3953,1011
148.4703,17.5
148.532,2246.9
148.5661,99.3
148.6159,533.7
148.6191,88.3
148.6628,87.2
148.6644,124.7
148.6858,126.4
148.7343,370.4
148.7385,22.5
148.83,822.3
148.9611,1240.6
148.9887,135.4
149.0025,62.9
149.0184,1386.3
149.0232,3805.6
149.0447,44.8
149.0514,315
149.0657,424.2
149.1032,546
149.1412,160.8
149.1617,165.4
149.1626,155.3
149.1992,126.5
149.4207,170.4
149.4983,563.7
149.503,1119
149.5069,121.2
149.5499,116.7
149.5774,184.2
149.6082,223.4
149.763,212.8
149.7786,201.4
149.7994,1004.8
149.9035,528.6
149.9872,49
149.9927,4116.1
150.0137,2378.3
150.0261,101.9
150.1721,644.7
150.2039,367.3
150.2523,463.3
150.2654,129.3
150.2682,1166.5
150.3472,136
150.3674,113.8
150.3702,919.1
150.3761,909.8
150.4728,132.8
150.4824,163.1
150.5085,212.1
150.5382,137.2
150.5483,92.5
150.5539,90.6
150.6257,442.9
150.7039,233.6
150.7371,131.6
150.7984,740.2
150.8271,135.3
150.8721,88.6
150.9106,530.9
150.9142,97.6
150.9688,131.4
150.9734,576.4
150.9767,39990.4
150.984,3807
151.0235,186.8
151.0476,3152.3
151.097,136.8
151.1948,213.6
151.2387,183.4
151.2416,110.9
151.2476,104.8
151.294,291.9
151.3818,307
151.4091,723.8
151.4614,166.3
151.5066,271.9
151.5644,18.9
151.5878,255.4
151.6702,187.4
151.7533,889.2
151.7934,558
151.8226,745.6
151.9759,173.5
151.9873,212
152.0035,512
152.022,5676.5
152.0316,1838.3
152.0575,290.8
152.1501,311.6
152.2036,377.5
152.2053,263
152.2305,547.9
152.2584,642.8
152.2745,539.6
152.3272,20
152.3335,117.7
152.3414,272.2
152.3817,262.4
152.4371,17.4
152.535,711.4
152.5421,101.6
152.6006,26.3
152.6078,17.9
152.6108,91.4
152.6969,156.1
152.7445,133.4
152.8024,90.3
152.8383,132.7
152.8413,253.9
152.9777,114.8
152.9845,42.2
152.9971,277.6
153.0537,114.6
153.1863,239.6
153.2262,143.1
153.3004,1027.8
153.3073,19.3
153.3215,156.1
153.3356,146.9
153.3444,128
153.3475,387.9
153.4106,722.8
153.4234,153
153.5283,157.1
153.5741,233.5
153.6417,15.9
153.7327,306.3
153.7809,298.3
153.7925,157.4
153.9726,144.2
153.9916,21.4
154.0111,563.2
154.0262,437.5
154.0586,1234.1
154.1118,915.5
154.151,178.3
154.2029,338.1
154.2571,403.5
154.3107,155
154.4528,94.9
154.4609,113
154.463,172.2
154.5583,150.6
154.5701,246.3
154.5957,146.1
154.6168,205
154.619,130.7
154.6669,99.2
154.6759,154.2
154.6889,17
154.7072,117.1
154.7147,97.8
154.7906,20
154.7969,93
154.851,1133.2
154.8804,658.8
154.9036,256.6
154.9074,71.2
154.9187,96.2
154.9498,327.4
155.0059,110.2
155.0304,141.6
155.0427,1531.2
155.049,190.9
155.0539,3263.1
155.0649,334.1
155.0766,128
155.0795,482.8
155.0956,23.9
155.1109,107.4
155.2156,582.7
155.2313,18.1
155.2515,187.3
155.2965,20.6
155.3402,171.4
155.3618,109.6
155.3759,18.9
155.3909,148.4
155.4258,87.8
155.4285,574.5
155.4517,90.9
155.4887,1409.6
155.6084,105.6
155.6485,115.4
155.6935,98
155.699,174.8
155.7462,848.4
155.7537,274.4
155.7683,223
155.8019,386.6
155.8046,608.9
155.8357,104.2
155.847,732.3
155.9518,189.5
156.0101,183.1
156.037,17.5
156.042,3908.1
156.0511,136.5
156.0571,27.6
156.0767,63356.2
156.1342,565.2
156.139,18.2
156.1612,108
156.1723,355.9
156.2083,242.3
156.2343,888.8
156.2877,542.5
156.3305,373.7
156.3574,278.2
156.3592,936.2
156.3667,330.1
156.3776,971.5
156.3858,94.5
156.4026,85.2
156.4029,83.4
156.4158,976.3
156.4258,855.6
156.489,126.5
156.5129,364.2
156.547,245.5
156.554,138.5
156.5702,90.8
156.628,830.7
156.6365,18.1
156.6374,16.8
156.6961,668.1
156.7061,143.6
156.721,218.8
156.723,729.6
156.7958,184.4
156.8014,210.2
156.8295,674.3
156.8513,125.3
156.9565,152.5
156.9684,118.9
157.0057,256.3
157.0272,574
157.0548,106.7
157.0611,173.7
157.0653,208.2
157.08,372.3
157.0971,45
157.152,108.3
157.5015,594.3
157.5993,982.9
157.6325,940.8
157.6387,479.3
157.6422,668.7
157.6791,1018.9
157.6846,578.7
157.7719,101.6
157.8163,321.2
157.8261,226.5
157.8759,196.2
157.9071,145.7
157.9728,310.1
158.027,4275.6
158.1187,210.4
158.1916,170.1
158.2043,196.1
158.2049,210.2
158.2643,447.4
158.3593,461.8
158.4564,160.3
158.4967,114.3
158.5348,366.1
158.5887,17.4
158.6172,696.5
158.657,233.5
158.7401,115.3
158.7623,321.7
158.7825,238.4
158.8227,180.7
158.9527,100.6
158.964,4602.8
158.9964,5136.2
159.0303,97.8
159.058,19.4
159.0634,239.7
159.0764,506.5
159.0798,20.1
159.0916,628.9
159.1252,138.9
159.1564,491
159.1653,97.8
159.2396,185.6
159.2709,515.6
159.3556,351.8
159.4566,733.5
159.4759,138.7
159.4916,1008.6
159.5921,104.7
159.6407,727.5
159.6869,248.4
159.7261,335.9
159.7501,18.1
159.7631,229.6
159.7661,487.3
159.7733,180.8
159.7812,18.9
159.8879,314.3
159.8918,19.7
159.9525,353.4
159.9578,20.2
159.9625,612.7
159.9821,26.5
160.0229,51.9
160.0276,720.9
160.0345,8171.6
160.0419,52.8
160.0604,72261.2
160.0878,92.1
160.0992,561.3
160.1097,98.4
160.2164,693.6
160.2328,518.1
160.2821,227.3
160.321,20.3
160.3729,673.3
160.3754,262.7
160.3807,156.5
160.4079,531
160.4115,95.8
160.48,114.9
160.4851,184.4
160.5026,454.5
160.5166,154.3
160.5252,149.4
160.7194,86.8
160.8051,234.9
160.8573,210.7
160.8872,166.2
160.8984,114.6
160.9151,139.8
160.95,214.4
160.9646,30.3
160.978,221.7
160.9922,166.2
161.0169,148.9
161.0183,426
161.0613,182.5
161.0638,2285.4
161.1284,4389
161.1325,441.6
161.1509,345.4
161.1597,98.2
161.1782,336.4
161.2776,22.1
161.3043,22.2
161.3872,19.4
161.4016,365.2
161.4356,170.8
161.4504,93.4
161.4983,88.2
161.5468,93.5
161.6024,147.8
161.6741,249.9
161.6902,114.5
161.7425,158.2
161.9004,557.2
161.967,98.7
162.0415,261
162.0501,11050.8
162.0674,699.3
162.0826,273.1
162.1044,424.2
162.1296,151.1
162.1881,258.8
162.2609,417
162.3023,159.9
162.3418,121.7
162.357,19.5
162.3765,351.5
162.4731,200.9
162.5176,106.9
162.5413,153.5
162.5516,17.8
162.5595,308.2
162.5779,328.3
162.6043,211.1
162.6486,963
162.6599,718.8
162.6635,110.8
162.6976,357.4
162.7129,878.4
162.7328,18.5
162.8165,186.1
162.8439,18.9
162.8775,128.3
162.9044,107.8
162.9087,123.6
162.9555,1951.7
162.9762,235.5
163.0153,2210.1
163.0408,124.4
163.0471,115.1
163.0953,362.3
163.148,106.1
163.1794,196.4
163.1827,106.8
163.2014,677
163.2051,344.1
163.2155,724.4
163.2199,204.1
163.2449,498
163.2719,126.6
163.2875,163.2
163.3313,179.3
163.3473,178
163.4048,139.7
163.4121,247.1
163.4318,704.7
163.4353,787.5
163.5221,101.6
163.5342,21.4
163.5392,106.4
163.6689,453.7
163.6776,87.7
163.6823,548.3
163.7853,19.9
163.8557,20.5
163.9581,410.8
163.974,175
163.9993,23.7
164.0146,288.9
164.0234,140.1
164.0294,6822.5
164.0474,324.4
164.1906,85.1
164.206,18.1
164.2213,235.5
164.2487,18.2
164.3171,148.5
164.3826,195.8
164.4571,120.6
164.4667,104.4
164.5242,187.1
164.5558,185.6
164.565,659.9
164.629,295.1
164.6414,983
164.8318,382.5
164.8559,255.6
164.8749,152.4
164.8812,223.7
164.8904,534.9
164.9157,24.1
164.9205,3567.7
164.93,12414.7
164.9349,1474.8
164.9454,211.7
164.9521,133.8
164.9591,161.5
164.9754,99.3
164.9847,1031.3
164.9873,17.4
164.9923,1241.2
164.9957,29.5
164.9997,476.1
165.0018,891
165.0065,430
165.0377,882.2
165.0443,143.1
165.0525,222.4
165.0801,178.4
165.1439,18.3
165.1603,155.5
165.172,753.6
165.2243,980
165.2545,115.8
165.2865,186.4
165.2998,346.5
165.3827,22.4
165.4744,266.3
165.492,100.3
165.5071,98.2
165.5189,527
165.5332,123.4
165.5875,1003.3
165.5894,795.2
165.5948,128.8
165.5983,733.4
165.6311,164.4
165.6715,592.4
165.7117,522.1
165.7366,588.8
165.74,150.4
165.7538,407.4
165.8444,204.6
165.9127,93.3
165.9276,17
165.9559,90.2
165.9598,621.5
165.9668,402.4
165.9713,23.6
165.979,584
165.9877,3369.4
165.995,1100.7
166.1859,219.9
166.2138,122.4
166.2206,146.4
166.2685,837.1
166.3268,986.2
166.3635,226.5
166.4298,316.9
166.4324,19.4
166.4421,21.2
166.4446,396.2
166.5101,17.8
166.585,479.5
166.6059,115.5
166.6233,127.8
166.6678,170.9
166.6779,619.3
166.783,20.9
166.787,94.6
166.8714,578.1
166.9396,702.2
166.9416,121.2
166.9507,16065
166.9789,30.6
166.9985,79.1
167,82.5
167.0217,4689.5
167.0261,384.8
167.0602,557.5
167.064,584.9
167.0686,17.6
167.0926,507.3
167.0952,141.5
167.2484,371.6
167.2546,781.2
167.3042,149.9
167.317,574.5
167.3654,108.1
167.4103,22.1
167.4638,111.3
167.6194,109.5
167.6358,103.3
167.6987,18.9
167.7076,90.9
167.789,1060.2
167.8298,254.1
167.8856,162.2
167.9803,137.1
167.9944,1144
168.0537,233.5
168.0714,291.8
168.1143,181.7
168.1979,909.5
168.1998,100.6
168.2135,19.1
168.2434,22
168.2643,151.6
168.2679,80.7
168.3598,133.3
168.4256,183.1
168.5622,237.4
168.6141,406.9
168.6315,121.6
168.6775,544.9
168.71,257.7
168.7152,230.9
168.7169,436.5
168.8328,140.4
168.9162,140.5
168.9374,67.4
168.9488,1536.5
168.996,19
169.0439,352.1
169.0583,63314.7
169.065,111.5
169.0699,210
169.0948,1081.1
169.124,169.4
169.1318,359.6
169.2299,149.4
169.2673,892.5
169.27,298.8
169.2914,502.6
169.3065,87.6
169.424,187.1
169.4348,246.1
169.4948,20.1
169.5178,185.7
169.5304,171.6
169.5942,179.8
169.6084,737.1
169.6867,932.5
169.7123,89.3
169.7457,21.7
169.8013,312.6
169.8205,592.3
169.8402,105.6
169.8719,384.5
169.8847,378.8
169.9417,127
169.9532,734.7
169.9598,159.2
169.9857,1565.6
170.0326,4621.1
170.0616,919
170.0715,105
170.0925,3405.3
170.1178,347.4
170.1234,224
170.1445,89.7
170.1531,186.8
170.1604,119.4
170.1746,277.3
170.2055,125.8
170.2804,307
170.3201,327.2
170.3612,356.9
170.4681,16.9
170.566,666.9
170.5741,405.3
170.6001,176.8
170.6529,97.1
170.6943,563
170.7061,366.5
170.7159,1022.8
170.7407,567.6
170.7913,110.9
170.8458,429.6
170.8543,4013.2
170.914,128.1
170.9515,539
170.9566,84.1
170.9868,453.5
170.9928,262.3
171.0003,543.9
171.0216,138.9
171.0279,111.5
171.0561,107.6
171.0969,436.4
171.1042,224.3
171.1292,481.6
171.1672,661.7
171.2277,95.9
171.2649,147.7
171.3256,924.1
171.4258,278.8
171.4327,235.4
171.4372,22.1
171.5314,18.5
171.5631,91.6
171.6039,103.7
171.6176,340.2
171.6357,414.8
171.6409,880.6
171.8325,18.6
171.8561,103.8
171.8594,102.5
171.8737,264.6
171.9208,266.9
171.9555,364
171.9693,467.6
172.0158,116.7
172.0281,358.5
172.114,1041.4
172.146,821.6
172.1523,156.5
172.2529,219.5
172.2933,621
172.3611,91.9
172.3705,153.8
172.3753,136.3
172.4348,105.3
172.4629,20.7
172.4716,130.1
172.53,107.8
172.587,586.4
172.6689,172.5
172.6719,671.2
172.8513,1716.8
172.8615,22.6
172.8664,142.4
172.9872,137.5
172.9996,148.6
173.0074,163.7
173.0268,301.5
173.0371,94
173.0754,185.4
173.0851,276.4
173.0957,187.3
173.1153,130.8
173.1431,90.5
173.1719,366
173.2061,623.5
173.2156,17.3
173.2585,126.6
173.3061,282.4
173.3468,152.1
173.3482,120
173.4145,263.2
173.4647,121.6
173.4708,244.1
173.5117,124.6
173.5466,227.2
173.5631,153
173.5669,221.5
173.6145,104.5
173.7388,91.6
173.7482,162
173.7501,142.8
173.8588,115.4
173.8697,64
173.8882,334.4
173.99,333.9
174.0005,79
174.0135,449.2
174.0968,106.5
174.1283,26.7
174.1908,117.4
174.2719,695.6
174.3411,707.1
174.3888,191
174.4016,418.6
174.4044,650.8
174.4546,175
174.4971,99.2
174.5384,17.7
174.6455,177.4
174.7823,124.7
174.8,916.3
174.8224,556.1
174.8379,144.4
174.8472,420.4
174.8805,308.9
174.8844,121.8
174.8925,107.8
174.9001,180.3
174.938,3612
175.0341,2958.9
175.0454,2503.8
175.0573,401.4
175.0774,106.9
175.1129,124
175.119,97789
175.1769,293.4
175.2837,853.2
175.2972,497.1
175.3658,576.8
175.3701,128.3
175.4455,273.3
175.492,378
175.5308,350.5
175.5772,424.4
175.5926,371.9
175.6577,562
175.707,21.9
175.7337,620.1
175.7409,189.9
175.771,1039.4
175.8568,20.1
175.9307,131
175.9581,589.5
176.0006,68.2
176.0084,3137.8
176.0164,23.8
176.0183,132.9
176.0279,544.4
176.0295,986.3
176.0658,15334.1
176.0946,94.6
176.1224,394.1
176.1704,175.3
176.1857,89.9
176.2214,112.6
176.2856,683.8
176.2905,161.7
176.2991,712.2
176.3269,169.2
176.3893,159.9
176.4189,99.1
176.4893,185.3
176.6428,110.5
176.6711,1080.5
176.6824,88.8
176.7067,228.7
176.7721,24.2
176.8249,486
176.9434,515.6
176.9487,101.5
176.972,321.6
177.0013,112.5
177.0248,572.5
177.0611,4650.6
177.087,332.8
177.0956,123.7
177.0978,19.2
177.2369,529.2
177.2635,380.8
177.2657,137.9
177.2692,238.5
177.3636,21.2
177.4532,20.5
177.5409,373.5
177.732,21
177.7905,138.8
177.815,94.8
177.8544,18.9
177.8644,21.7
177.8715,114.3
177.9026,519.7
177.9184,97.1
177.9617,139.6
177.9714,316.1
177.9947,72.3
178.006,254.3
178.0087,11297.9
178.0161,63.2
178.0241,7891.7
178.0587,5119.2
178.0759,86.6
178.1707,21
178.1886,17.7
178.2294,130.8
178.2951,562
178.3374,675.6
178.3479,513.9
178.393,171.5
178.4256,564.8
178.4512,105.7
178.5788,154.7
178.6314,620.6
178.6572,109.6
178.7097,144
178.7385,417.3
178.8719,513.2
178.8927,36.8
178.9001,144.5
178.9217,62
178.9611,139.4
178.964,126.4
178.9668,557.1
179.0029,149.7
179.0423,18.9
179.0655,95.6
179.1076,99.2
179.1285,975.1
179.1392,317.4
179.1484,260.4
179.1963,216.9
179.2541,184.6
179.2746,18.6
179.2798,248
179.355,91
179.4756,137.2
179.4852,193.1
179.506,338.1
179.5243,120.3
179.6409,516.7
179.6658,243.3
179.6838,116.2
179.6923,175.6
179.7094,611.1
179.7506,188.6
179.761,393.9
179.8822,83.1
179.8913,19.3
179.9875,20.6
180.0034,5944.2
180.0107,175.6
180.0339,701
180.0536,336.8
180.1067,1057.8
180.113,142.4
180.1866,765.4
180.2079,192.5
180.2107,220.6
180.3365,332.6
180.42,118.2
180.4379,627.6
180.6288,379.3
180.6944,132.4
180.7088,240.4
180.8238,814.8
180.8673,599.4
180.8881,633.2
180.8945,2595.9
180.9039,5501
180.9489,403.8
180.9663,545.8
180.9805,131.4
181.0158,20.3
181.0347,87.2
181.0412,378.2
181.0648,6506.1
181.0885,153.2
181.1608,493.1
181.1778,359.6
181.2819,161.6
181.2934,17.8
181.3346,80.1
181.3389,408.1
181.3659,96.8
181.5158,283
181.6639,106.5
181.746,374.3
181.777,23.7
181.7965,127.5
181.8144,137.2
181.8261,715.7
181.9405,220
181.9632,117.9
181.9943,134.3
182.0111,25.4
182.0157,24.1
182.0424,34991
182.0717,303
182.1634,368.3
182.1951,21.8
182.2706,16.8
182.2896,92.4
182.3183,140.1
182.3764,842.2
182.4383,224.2
182.4792,107.4
182.4812,363.5
182.4932,928.9
182.4958,484.3
182.6521,320.1
182.6698,384.7
182.6741,416.9
182.6769,323.7
182.707,503.6
182.7156,215.8
182.7247,1017.3
182.876,156.7
182.9023,55.7
182.9405,19.7
182.9759,400.3
182.9943,91.3
183.004,103
183.0446,647.8
183.0767,318.7
183.0874,1025.2
183.0979,146.7
183.1528,178.1
183.2477,128.5
183.3108,177.7
183.334,158.2
183.3541,327.1
183.4382,216.9
183.4654,908.7
183.4811,202.6
183.4962,972.2
183.528,156.1
183.5719,307
183.6128,720.4
183.7056,89.2
183.7491,101.3
183.7637,102.7
183.7741,563
183.7965,90.4
183.8146,144.2
183.8632,113.2
183.9647,3160.8
183.9853,140.6
183.9931,92.9
184.0374,794.7
184.0554,160
184.0563,157.1
184.0652,1054.1
184.0691,2548.2
184.0733,4774847
184.0878,603.8
184.1096,290.9
184.1192,1031.6
184.141,339.5
184.1545,275
184.1665,521.7
184.1821,4353.8
184.1891,175.6
184.2061,413.4
184.2726,931.2
184.3039,117.7
184.3572,20
184.3884,167.8
184.418,147.5
184.4417,853.3
184.54,684.7
184.6141,127.8
184.683,107.9
184.7206,160
184.7338,130.7
184.7488,127.4
184.7801,144
184.8097,140.5
184.9315,883.4
184.9454,140
184.9894,858.6
185.0323,80382.7
185.0703,7629.2
185.0767,212172.9
185.1192,367.6
185.2341,210.5
185.2462,275.6
185.3511,148.5
185.5216,1222.3
185.5369,116.8
185.5589,506.5
185.6,352.7
185.6319,379.3
185.6583,397.7
185.6635,630.3
185.7432,571.4
185.8274,155
185.8589,99.6
185.9598,2457.7
185.9985,483
186.0162,857.8
186.0531,480.7
186.0776,27884.7
186.2377,22.6
186.2424,184.8
186.2966,229.7
186.4162,687.1
186.5993,126.2
186.6109,208.8
186.6535,165.3
186.7338,282.1
186.7462,88
186.7634,564.1
186.905,323.7
186.9473,25.1
186.9908,158.9
187.0305,1787.1
187.0528,284.5
187.0577,7196.6
187.0712,617
187.0824,880.3
187.1078,1447.8
187.139,114
187.2525,909.7
187.2737,1062.6
187.3047,198.9
187.3327,119.1
187.3807,378.1
187.475,140.2
187.5022,93.9
187.5667,503.3
187.5884,107.6
187.5925,479.2
187.6473,115.9
187.6832,232.6
187.7514,525.9
187.7769,136.3
187.8275,388.1
187.9107,154.2
187.9403,691.9
188.0309,264.3
188.0628,149.5
188.0896,149.7
188.1666,309.9
188.2015,850.8
188.2118,140.7
188.355,299.6
188.3705,19.4
188.4,150
188.5295,93.4
188.5633,391.8
188.5797,17.6
188.5949,86.7
188.7216,190.8
188.8775,36.7
188.8834,106.1
189.021,101.8
189.0611,3241.4
189.087,7590.1
189.1127,183.6
189.249,94.2
189.2662,88.1
189.2694,242.2
189.2994,120.5
189.3196,448.9
189.3519,105.6
189.3701,424.7
189.4209,96.5
189.5575,148.1
189.7559,343.5
189.8348,390.2
189.9125,683
189.9288,381
190.042,478.7
190.0484,687.9
190.0508,236.7
190.1064,367.9
190.1648,189.2
190.2469,146.9
190.2767,891.2
190.3219,19
190.3571,510.5
190.4184,89.9
190.4228,132.9
190.5637,699.8
190.5952,249.7
190.6201,243.1
190.6653,148.7
190.7315,270.5
190.8146,124.6
190.8725,440.3
190.9118,1722.2
190.9698,455.6
190.9784,92.6
191.0001,67.5
191.0081,2400
191.0162,161.3
191.0213,147.9
191.0241,18.9
191.0268,370.2
191.0403,93210.1
191.0767,11131
191.1206,172
191.1335,554.2
191.1746,150.4
191.2241,304
191.2389,19.4
191.3338,168.7
191.4739,343.8
191.4877,17.5
191.6584,391.5
191.7151,120.6
191.7732,187
191.8268,156.8
191.9054,20.3
191.9617,103.8
192.011,57.6
192.0292,18.5
192.0398,9860.6
192.0437,963.5
192.1319,146.6
192.2057,90.1
192.2419,443.8
192.2647,190.6
192.3325,184
192.3591,156.3
192.3735,813.9
192.4252,600.3
192.4833,135.1
192.5276,181.7
192.5885,768
192.5953,578.8
192.6426,217
192.6677,388.3
192.7441,342.7
192.7625,108.3
192.8844,18.1
192.9017,105.7
192.9109,147.6
192.9668,133.5
192.9798,262.7
192.9987,1894.9
193.0159,169.9
193.0243,166.7
193.0349,2156.7
193.0567,596.7
193.0829,191
193.1073,185
193.1263,271.3
193.1664,244.5
193.2268,19.4
193.3155,204.9
193.3991,588.1
193.4312,766.1
193.4485,464.7
193.4623,20.2
193.4749,297.1
193.4938,108.5
193.506,191.2
193.6177,135.7
193.6377,185
193.8204,563
193.9086,717.8
193.949,39.4
193.9524,919
193.9632,453.5
193.9736,952.4
193.9786,338
193.9981,1470.2
194.0045,1316.7
194.0219,661.2
194.0326,553.1
194.038,496.1
194.0822,1021.8
194.154,89.7
194.2009,89.3
194.245,132.6
194.2849,136.3
194.3221,108.7
194.3863,135.5
194.4969,174.1
194.5459,340.4
194.5715,114.1
194.6198,365.7
194.6461,421.1
194.7593,87
194.803,95.8
194.8405,135
194.8912,137.3
194.9038,296.9
194.9267,677
194.9361,21.7
194.9498,572.7
195.0584,97.8
195.1123,205.8
195.1152,107.9
195.1602,81.5
195.2168,530.2
195.2194,259.3
195.222,616.3
195.3116,236.2
195.4319,561
195.532,662.2
195.5442,128.5
195.561,143.8
195.6145,121.5
195.7299,149.6
195.8728,272.3
195.9469,438.5
195.9518,19.3
195.977,557.4
196.0271,200.2
196.0755,18.3
196.0792,437.1
196.102,17.4
196.1078,476.7
196.1112,638.2
196.1198,357.3
196.1697,247.6
196.1911,208.2
196.2241,96.9
196.228,668.1
196.2433,110
196.2848,144.5
196.2927,387.5
196.3551,1042.6
196.3744,1036.5
196.3782,83.2
196.4369,16.9
196.4433,119.8
196.504,685.6
196.5597,758
196.5747,138.5
196.5857,96.2
196.6122,212.2
196.6958,647
196.7565,260.1
196.8652,4195.8
196.8683,1072.7
196.8779,1263.3
196.8897,904.2
196.8947,17.3
196.9325,168.2
196.9849,173.4
196.9911,107.8
197.0536,605.8
197.0681,507.2
197.0749,130.1
197.0862,113.7
197.1009,1065.4
197.2159,218
197.258,1013.1
197.3214,173.6
197.3781,626.9
197.4517,568.2
197.5651,327.1
197.5708,111.7
197.6883,109.2
197.6985,664.3
197.7416,99.5
197.7805,170.5
197.7897,101.4
197.8793,346.6
197.8909,33.3
197.9434,249.2
197.9799,18.4
197.9966,369.2
198.0337,173.4
198.0654,122
198.0849,3894.2
198.1001,247.7
198.1128,139.2
198.1616,154.2
198.1853,5571
198.2024,221.1
198.2225,511.6
198.2738,485.1
198.3087,184.3
198.4032,571.5
198.4733,128.6
198.5879,17.7
198.6545,334.7
198.7991,736
198.8622,3252.7
198.8875,293.5
198.8959,81.2
198.9377,101.2
198.9611,82.2
199.0164,481
199.0258,94.5
199.0447,106.9
199.0755,1851.8
199.0809,887.8
199.1186,779.8
199.1658,18.4
199.1888,231
199.2464,738.4
199.2788,1102.8
199.3241,607.8
199.3369,93.9
199.4192,983.8
199.4298,472.9
199.5477,988.1
199.6316,158.2
199.7249,547.7
199.747,130.2
199.7545,425.7
199.7759,560.2
199.8425,680
199.9907,33256.4
200.013,237
200.0407,9737.7
200.0443,17.9
200.0878,198.1
200.1642,608.7
200.1743,553.1
200.2112,113.9
200.2155,154.5
200.2439,129.2
200.2636,11344
200.2705,201.1
200.3459,693.3
200.3629,411.2
200.3869,588.4
200.4206,225.7
200.5275,209.6
200.5354,545.2
200.5802,241.5
200.6184,251.8
200.6701,105.9
200.6775,139.2
200.7897,312.6
200.8593,403.6
200.8617,119.6
200.8649,602.4
200.8816,411.5
200.8943,418.7
200.9535,555.9
201.0871,93.8
201.2524,188.3
201.3527,260.2
201.4758,160.1
201.5453,245.9
201.6179,156.5
201.719,209.7
201.8284,562.7
201.8648,119.8
201.869,117.2
201.8944,46.5
201.9342,746.9
201.9765,230
201.9888,251.5
201.9957,80.9
202.0162,46.8
202.0483,401.8
202.0558,146.4
202.0944,97
202.1085,441.7
202.2896,227.3
202.2947,526.1
202.3465,507.2
202.4077,246.1
202.4588,568.8
202.5425,552.4
202.5533,219.9
202.6046,18369.2
202.6115,18.5
202.6653,219.6
202.7265,572.3
202.8002,299.7
202.8457,397.5
202.8951,87.7
202.9427,19.1
202.9656,940.4
203.0247,180.9
203.0318,1489.8
203.0422,114.2
203.0527,1180066.4
203.0768,7704.8
203.1301,357
203.1762,397.5
203.1907,146.4
203.1952,193
203.2076,107.6
203.2832,103.7
203.3206,132.1
203.3251,127.2
203.4377,619.3
203.5838,1170.1
203.6223,21.3
203.6934,515.4
203.7125,842.1
203.7171,206.5
203.7773,94.8
203.7992,382.9
203.8687,518.1
203.9229,238.4
203.9443,137.8
204.0244,47801.3
204.032,114.4
204.056,58178.1
204.0826,263.9
204.0864,140.1
204.1032,746
204.111,87.9
204.1435,115.5
204.1997,141.3
204.2475,109.7
204.4599,97.9
204.5013,159.4
204.7473,153
204.7588,193.2
204.7603,191.7
204.8703,789.9
204.8736,127.4
204.8887,135.2
204.9051,20.1
204.9409,133.9
204.9961,95.2
205.0273,274.1
205.0569,10032.8
205.0685,1364.3
205.0746,198.9
205.0837,20.9
205.1415,17.4
205.161,184.1
205.2015,422.6
205.2377,19.2
205.3379,137.4
205.3716,21.4
205.4035,175.8
205.4074,18.4
205.4337,364.5
205.5041,116.8
205.5116,726.6
205.5755,305.4
205.631,89.4
205.6376,176.5
205.6844,114.2
205.7457,550.2
205.7687,395.3
205.8096,450.8
205.8235,234.9
205.8884,21.6
205.903,99
205.9431,289.9
205.9712,646
206.0086,20.4
206.0112,132.6
206.0455,129.1
206.0476,155.4
206.0553,659.1
206.0997,1027.1
206.1962,1050.9
206.2207,950
206.253,21.1
206.3685,111
206.374,95.5
206.4413,18.3
206.4644,94.6
206.4716,483.9
206.4839,227.7
206.5071,578.2
206.5113,743.5
206.7385,120.2
206.7845,105
206.8484,425.3
206.8659,154.7
206.8773,858
206.8877,124.3
206.8939,13642.9
206.9166,851.8
206.9263,22.5
206.9335,397.6
206.9671,138.8
206.982,2090.1
206.9977,178.9
207.0143,72966.1
207.0313,48.9
207.0442,1123.2
207.0507,8471.2
207.0917,6112.5
207.1392,117.7
207.2806,98.2
207.2953,234.5
207.3673,383.5
207.3787,206.1
207.3924,176.8
207.4335,109.7
207.4912,765.9
207.5227,97
207.5818,365.1
207.6573,96.2
207.7107,124.2
207.7154,528.7
207.7677,154
207.8043,86.1
207.8401,170.8
207.8861,65.8
207.9906,1480.2
208.0138,2237.2
208.0175,1823.8
208.0429,23.5
208.0525,145.8
208.0703,392
208.1243,212.1
208.1653,165
208.205,179.1
208.2897,638.9
208.2991,435
208.3645,101.2
208.3861,18.9
208.472,506.6
208.4794,634.3
208.5285,198.3
208.561,106.1
208.7004,841.7
208.7245,894.1
208.8713,105.9
208.8831,1486.4
208.891,6873.8
209.0125,2444.1
209.0312,131.6
209.1048,97.3
209.1093,96.7
209.1219,160.3
209.1443,121.9
209.308,295.2
209.3402,235.6
209.3671,98.7
209.3843,126.4
209.5072,107.4
209.537,357.1
209.5945,133
209.6132,20.2
210.5838,19.9
210.697,94.9
210.7769,92.2
210.8073,138.8
210.819,116.9
210.8257,831.6
210.8595,1009.6
210.8913,405.6
210.9481,67.3
210.9516,22
211.0231,202.2
211.0564,374.5
211.069,712.3
211.2426,205.3
211.2729,360.5
211.2783,201.8
211.2832,1373.2
211.2923,14778.8
211.2963,27125.9
211.2996,33347.8
211.3058,26410.8
211.3258,250.2
211.3789,209.7
211.4278,254.8
211.4447,183.3
211.5718,200
211.5882,198.3
211.5956,735.2
211.7944,166.6
211.8486,119.1
211.8749,20
211.879,164.4
211.9407,184.6
211.9461,23.7
211.959,69
211.9659,738
212.0245,112.1
212.0615,356.6
212.0743,53.5
212.1184,255.8
212.1196,239.2
212.1505,149.2
212.2901,392.7
212.3013,22.5
212.3216,654.2
212.387,187.3
212.3939,1130.4
212.5428,106
212.5596,395.4
212.6615,341.2
212.7266,141.6
212.8393,2082.7
212.8782,295.1
212.9208,125.8
212.9651,46.7
213.0324,38
213.0547,429.5
213.0643,205.3
213.0749,631.3
213.2223,18.8
213.3136,293.5
213.3541,87.4
213.4052,165.8
213.4566,583.3
213.4957,344.3
213.5501,144.5
213.5849,645.5
213.6498,735.5
213.6928,657.1
213.7322,93.1
213.9336,101.7
213.9621,2377.9
213.9775,291
213.9846,218.8
214.006,654.7
214.0161,280.7
214.02,118.1
214.032,101.6
214.059,7794.1
214.0898,956.5
214.1451,203.1
214.1552,732.5
214.5708,215.9
214.6238,93.2
214.6826,318.8
214.7355,105.4
214.8363,729.4
214.8405,111.6
214.8529,18.5
214.8735,92.4
214.9032,828.7
214.9099,170.3
214.9177,31.1
214.9216,134.6
214.953,18.2
214.9657,78.4
214.9714,88.5
215.0481,476.8
215.0756,985.7
215.0933,57.6
215.1375,19.4
215.1612,90.1
215.1642,178.5
215.1727,99.1
215.2927,187.9
215.3126,99.6
215.3147,87
215.3749,175
215.4741,140.8
215.5015,381
215.5267,1012.3
215.5662,238
215.6541,133.5
215.6936,220
215.6956,194.7
215.7276,80.5
215.7446,124.1
215.9426,19.5
215.9538,142.5
215.9576,24
216.0146,6571.7
216.0177,360.7
216.0448,20.4
216.0876,96.4
216.12,730.6
216.1909,101.5
216.1951,260.3
216.1998,352.1
216.2129,97.1
216.2243,142.6
216.2437,17.5
216.3026,107.3
216.3733,816.4
216.41,323
216.4772,211.1
216.589,184.5
216.5964,866.4
216.741,18.2
216.7554,125.7
216.7645,153.2
216.8057,345.6
216.9228,34372.5
217.0269,327.8
217.0558,181.4
217.0881,108.3
217.0902,89
217.1241,158.8
217.1406,387.6
217.3047,840.8
217.3334,1347.2
217.3598,658.8
217.4016,234
217.4519,102.9
217.4585,18.2
217.4762,600.5
217.5064,735.1
217.5193,596.5
217.8388,537.3
217.8504,525.1
217.8656,1085.3
217.8793,726.1
217.9308,357.8
217.9992,95.5
218.0154,20.9
218.0349,920.3
218.0749,537.5
218.1044,140.8
218.1449,512.1
218.1517,229
218.2121,394.9
218.2387,165.3
218.344,694.3
218.4202,302
218.5704,244.6
218.583,97.7
218.6533,154.1
218.6715,774.3
218.7755,174.6
218.7965,18.4
218.7992,145.7
218.8103,93.4
218.8673,123.8
218.8846,202.4
218.9046,106.9
218.9199,8862.2
219.0177,959.7
219.0266,1480461
219.032,390.9
219.0329,574.8
219.0487,590.2
219.083,7883.2
219.0871,95.7
219.0897,408.4
219.1071,131.6
219.1448,135.6
219.1678,433
219.199,185.4
219.3533,316.7
219.4605,153.1
219.5455,102.8
219.7085,102.3
219.7268,815.6
219.7396,137.6
219.7654,169
219.8046,636
219.8762,629.5
219.913,195.6
219.9546,1065.4
219.9625,724.2
219.9906,342.9
219.9983,176.3
220.0299,73701.1
220.0373,2276
220.0669,3287.5
220.1297,138.2
220.1673,569.3
220.1855,484
220.2345,397.8
220.3332,103.8
220.3844,18.8
220.3953,19
220.4079,101.6
220.4335,180.5
220.4802,19.6
220.4988,239.8
220.5118,160.6
220.576,641
220.5881,601.9
220.6145,498.2
220.6359,615.6
220.648,369.7
220.6985,211.7
220.766,822.9
220.8297,315.4
220.8329,19.4
220.8833,19.4
220.9039,53.7
220.933,26
220.9474,530.2
220.9731,631.2
221.0247,89508.2
221.0309,9409.4
221.0511,1495.3
221.0844,258.1
221.1709,24.3
221.3243,868.8
221.373,93.4
221.391,285.5
221.406,336.1
221.5034,128.6
221.5386,376.6
221.5558,525.5
221.5565,528.9
221.6314,226.5
221.6428,19.4
221.6905,663.5
221.7881,406.9
221.8656,271
221.9224,147.7
221.9562,133.2
221.9836,3684.4
222.0046,307.8
222.0281,2426.9
222.077,170.5
222.0839,20.4
222.0907,290.8
222.2197,792
222.2458,969.3
222.2533,227.8
222.3097,155.1
222.3252,133.7
222.3911,201.1
222.5783,18.2
222.5879,425.3
222.71,958.6
222.7564,386.3
222.7784,395.2
222.82,100.7
222.8679,12729.3
222.8833,280.8
222.8883,451.6
222.8988,564.7
222.9539,2147.7
222.9689,474.1
222.9883,8021.8
223.0209,323.5
223.0375,564.4
223.0639,31.5
223.0833,634.9
223.1226,99.7
223.15,313.4
223.2131,187.1
223.2671,783.7
223.2715,374.2
223.2774,1014.7
223.4145,20.9
223.4513,151.2
223.5697,151.2
223.6198,101.9
223.8174,150.5
223.8396,16.9
223.8635,187.4
223.9024,153.5
223.9537,25.7
224.0035,125
224.0296,2306.1
224.1276,217.7
224.1965,567.8
224.214,117.1
224.2212,204.8
224.2637,297.6
224.2696,110.5
224.5941,592
224.6086,85.7
224.7747,210.5
224.8346,1146.2
224.861,362.5
224.8649,5306.9
224.9275,152.3
224.9521,113.8
224.9578,207.3
224.9645,177.5
224.9682,217.2
224.9934,680.2
225.0237,58.7
225.0548,29782.7
225.0619,19.2
225.0848,506.5
225.1171,127.2
225.1848,200.6
225.3126,19
225.4627,339.1
225.4773,476
225.495,154.8
225.6389,200
225.6486,1147.1
225.6694,408.9
225.9102,191.7
225.9387,24
225.9521,22.8
225.9598,385.2
226.0019,20.7
226.0064,1776.5
226.0241,7994.6
226.0452,7869
226.058,327.5
226.1073,574.8
226.1182,21
226.1752,591.4
226.3727,19.2
226.5051,722.2
226.5901,655.8
226.6081,360.9
226.6953,1033.8
226.7126,178.5
226.762,916.4
226.8362,101.4
226.8617,633.8
226.901,250.3
226.9219,167.5
226.9516,28805.1
226.9682,20.4
226.9885,131.7
227.0217,118.2
227.0338,382.7
227.0431,263
227.0636,115.6
227.0792,2102.2
227.0862,136.2
227.1493,411.8
227.1704,188.7
227.174,227.2
227.1786,17.8
227.1863,320.6
227.2175,90.4
227.2497,752.1
227.5145,101.7
227.5763,101.2
227.6049,222.3
227.7201,107.8
227.8935,325.6
227.8979,106.1
227.9019,21
227.9223,122.9
227.9254,582.2
227.955,346.9
227.9617,347
228.0003,172.2
228.0222,475.3
228.0562,1582.5
228.1168,124.5
228.1596,102.4
228.3051,80.9
228.3313,231.2
228.4029,556
228.4339,622.5
228.4781,289.7
228.493,20.8
228.6111,489.7
228.7122,225.5
228.7829,392.5
228.905,520.9
228.9461,125.2
228.9602,132.9
228.9914,1727
229.0246,88.2
229.0318,170.9
229.0633,125.2
229.2875,390.9
229.2964,124.9
229.3129,170.8
229.3414,395.6
229.3458,279.3
229.4736,19.4
229.6444,128.3
229.7543,518.1
229.8019,157.2
229.8495,107.2
229.912,114.7
229.957,6970
229.9984,128.8
230.0333,119.1
230.0764,574.6
230.0939,170.8
230.1133,762.9
230.1228,683.7
230.1355,89.4
230.2614,124.1
230.2694,93.4
230.2816,17.6
230.3638,95.3
230.3895,94.3
230.476,263.5
230.526,347.2
230.6572,179.2
230.6987,371.4
230.7156,113.7
230.7297,199
230.7533,337.1
230.7665,115.6
230.8099,429.1
230.8901,412.3
230.9337,374.7
230.9602,244.9
231.0551,372.2
231.1001,132.6
231.1155,176.3
231.3198,987.3
231.5182,596.2
231.5864,250.5
231.7041,210.6
231.7373,129.7
231.7395,142.8
231.8084,136.7
231.8576,1289.4
231.8933,23.8
231.953,189.2
231.9574,172
231.9682,226
231.9726,114.3
231.9951,35.4
232.0649,200.3
232.2489,933.7
232.3115,144.2
232.3537,93
232.3812,103.5
232.4606,356.6
232.4821,125.4
232.5109,102.8
232.5347,132.7
232.667,23
232.7502,538.3
232.8613,20.6
232.8831,36.9
232.8967,30609.9
232.9285,823.5
232.9446,342.8
232.9855,471.7
232.9991,142
233.051,9633.5
233.1029,103.8
233.1898,20.5
233.196,266
233.2733,18
233.38,198.4
233.4266,759.5
233.4685,94.5
233.4732,1156.7
233.5062,202.3
233.6212,292
233.6715,209.4
233.8767,936.8
233.8973,119.1
233.9529,64.2
233.9854,359.2
234.063,138.9
234.1402,87.3
234.1659,97.9
234.1717,21.1
234.2072,683.3
234.2539,24.9
234.3021,146.9
234.4217,285.8
234.4475,577.9
234.5337,572.4
234.5798,193.7
234.7343,97.3
234.8936,7453.3
234.9147,354.2
234.9187,21.5
234.9399,80.2
234.9816,4365.2
235.0131,184.4
235.0565,533.8
235.0667,1515
235.0925,6254.6
235.1034,101.9
235.1667,670.8
235.1876,139.2
235.275,638
235.2946,106.1
235.298,618.5
235.3866,98.7
235.4194,193.6
235.6364,157.3
235.7124,19
235.732,536.4
235.8276,139.3
235.888,19.9
235.9261,117.6
235.9444,134.1
235.9982,150.7
236.022,760.1
236.041,1446.6
236.0717,53103.4
236.1106,142.4
236.1613,217
236.178,347.3
236.2099,639.6
236.3149,213
236.3443,318.9
236.5906,667.1
236.6387,150.2
236.6531,338.8
236.6679,21.9
236.6807,325.2
236.7605,187.9
236.7735,220.6
236.7936,647.8
236.8353,310.7
236.8589,704.8
236.8773,281.1
236.8887,98.1
236.9071,93.6
236.9924,224.4
237.0297,423.4
237.0452,145.9
237.0629,327.1
237.0706,45.7
237.0751,2067.7
237.2065,666.3
237.2251,703.5
237.2489,17.8
237.2956,459.6
237.4188,20.2
237.4649,818.2
237.6285,194.6
237.7403,95.1
237.9,156.4
238.0016,96.7
238.0481,17.5
238.0674,800
238.078,19.5
238.1929,307.5
238.1998,285.1
238.3887,22.5
238.4123,105.1
238.4572,153.3
238.4956,130.5
238.5828,602.3
238.5991,229.3
238.6859,573.9
238.7497,235.5
238.814,535.8
238.8338,854.6
238.8418,3001.6
238.853,1194.7
238.9476,133.5
238.9903,96.4
239.0091,4659.7
239.0495,630.9
239.0642,124.9
239.068,2178.7
239.1132,140.5
239.2549,734.3
239.3507,620.9
239.3551,458.3
239.3655,893.7
239.3693,170.3
239.5628,373.6
239.5934,302.5
239.6931,20
239.704,243.1
239.8578,129.7
239.8956,151.1
239.9336,504.1
240.0035,527.2
240.1049,185.2
240.1281,164.1
240.1774,80.4
240.1991,778.6
240.2287,17.8
240.4136,126.2
240.4959,137.8
240.5299,88.1
240.5535,202.6
240.6663,125.7
240.7544,172.1
240.7808,574.1
240.8266,285.9
240.8387,1566.9
240.8642,111.5
240.967,980.2
240.9721,103.8
241.1361,723.9
241.2158,160.7
241.2391,1051.2
241.3019,277.5
241.3211,669.6
241.332,91.6
241.3363,119
241.3397,296.1
241.3483,464.3
241.4384,91.1
241.4487,758.2
241.6263,728
241.6445,388.5
241.6842,413.3
241.7338,602.6
241.8772,327.7
241.9075,406
241.9355,18.7
241.9773,106.2
241.9981,583.1
242.0189,2688.6
242.0343,506.9
242.0486,284.9
242.0521,105.9
242.1169,161.9
242.1878,253.5
242.3348,248.8
242.3463,19.6
242.3713,301.8
242.3866,183
242.5007,285.5
242.6582,19.1
242.7772,117
242.9255,17585
242.9754,23.2
243.0078,702.6
243.0328,919.8
243.053,8349.7
243.0654,9676
243.1168,124.2
243.134,240.9
243.2075,739
243.5134,554.2
243.5694,200.4
243.6758,983.4
243.7769,90.1
243.7909,195.1
243.8455,197.2
243.8703,196.2
243.8968,113.3
243.9727,2980.6
244.0126,253.8
244.0331,95.9
244.069,218.6
244.1649,225.9
244.2933,982.3
244.5629,136.7
244.609,655.7
244.6262,193.3
244.656,811.5
244.7443,992
244.7951,438.9
244.8273,84.4
244.8708,3272.2
244.8806,747.3
244.897,88.9
244.9418,161.7
244.948,704
244.9631,655.7
244.9758,166
244.9803,147.4
245.1425,145.1
245.2709,606.2
245.281,118.8
245.3258,21.2
245.3682,589.5
245.398,20.4
245.4901,130.9
245.4982,570.2
245.5184,207.5
245.7105,116.5
245.7267,565.3
245.853,142.2
245.8821,915.3
245.9684,97.1
245.9729,104.5
245.9885,87.5
246.0014,59.5
246.0103,19.5
246.0644,915.4
246.091,198.8
246.1837,101.9
246.2422,193.3
246.3556,148.2
246.3629,104.8
246.5339,155.4
246.5368,170.8
246.6499,1017.8
246.666,673.8
246.7703,149.3
246.7978,245.1
246.8072,34.2
246.8625,384.9
246.8702,167
246.8753,18.7
246.9517,2461.8
246.9712,20
246.9901,150.9
247.0034,631
247.0493,231.6
247.0552,1062.4
247.0665,695.3
247.0925,4007.1
247.1866,155.7
247.2254,146.9
247.2667,16.8
247.3171,101.2
247.343,650.7
247.3686,735.1
247.3898,983.6
247.6855,620.8
247.7467,589.2
247.7813,130.9
247.9308,309
247.9676,503.5
247.9833,285.9
248.1241,16266
248.1513,607.9
248.2018,86.3
248.3724,261.2
248.6521,266.7
248.6578,211.9
248.7575,236.4
248.8046,90.2
248.8707,9201.2
248.9008,170.4
248.9297,403.9
248.9482,48.7
248.9991,556.1
249.0159,762
249.0246,231.4
249.0612,12117
249.0695,249.7
249.0981,390.5
249.1245,109
249.1414,357.3
249.159,21.9
249.2245,535
249.2394,895.9
249.4119,198.3
249.486,103.2
249.495,115.6
249.5153,22
249.5481,142.9
249.5626,507.3
249.5853,565.8
249.6242,700.6
249.8076,16.4
249.8087,16.9
249.8879,398.6
249.9063,293.2
249.9154,17.6
250.0383,1684.2
250.1725,630
250.2266,97.2
250.2831,936.7
250.2921,969.6
250.3017,504.8
250.3239,491.7
250.3636,287.9
250.4505,571
250.6133,208.9
250.8225,154
250.8511,222.8
250.8675,3228.6
250.8938,173.6
250.9015,19.7
250.9203,712.1
250.9552,2165.9
251.0008,27.6
251.026,274
251.0337,1030.7
251.043,224.6
251.0476,220
251.2267,16.3
251.2967,768.4
251.3219,96.5
251.4533,17.4
251.4577,324
251.4834,180.6
251.524,167
251.5362,472.4
251.6079,835.9
251.7693,391.8
251.8896,549.3
251.9804,149.2
251.9933,111.8
252.0365,114.9
252.0456,111496.4
252.1392,137.6
252.1498,898.4
252.3379,116.5
252.4223,270.4
252.4866,169.9
252.5546,20.1
252.6171,1206.3
252.664,808.6
252.7269,870.1
252.77,585.9
252.8665,408.9
252.8803,575.8
252.91,33
252.9165,174.7
252.9517,24.8
253.0376,20.5
253.0491,5305.5
253.0722,312.2
253.1614,259.3
253.2015,1054.2
253.2609,158.9
253.349,150
253.5548,432
253.5655,744
253.5731,481.1
253.63,164.8
253.6319,175.8
253.661,419.8
253.7277,97.1
253.7414,182.5
253.8342,90.1
253.8409,479.6
253.9029,104.7
254.0356,815.2
254.0438,3737.6
254.1205,107
254.1538,127.4
254.1884,443
254.2769,224.3
254.3395,124.6
254.4214,151.8
254.4657,576.9
254.7367,156.1
254.8004,19.3
254.8155,1726.1
254.8238,3932.5
254.839,371.8
254.9806,662.7
254.9861,101
255.0259,127.7
255.033,22609.9
255.038,1492.5
255.0463,199.5
255.0504,203.2
255.3557,19.7
255.4293,147.4
255.529,372.8
255.6006,117.3
255.6222,241
255.7186,81
255.8721,323.5
255.9048,257.7
255.9266,787.3
255.939,975.1
255.9925,160.8
256.0032,361.6
256.0576,28.8
256.232,440.8
256.2374,18.4
256.3668,348.4
256.381,912
256.4916,150
256.5616,181.6
256.6431,345.7
256.6693,142.3
256.7781,147.5
256.8128,460
256.8209,7211
256.8698,17.8
256.9397,585.1
256.9493,137.6
256.9815,53.6
257.0221,173.6
257.0326,279.8
257.0486,6765.2
257.0624,319.2
257.0662,461.3
257.0745,47504.4
257.1553,249
257.1886,202.7
257.1959,638.9
257.2352,388.8
257.2804,154.9
257.3129,181
257.3609,263.7
257.4748,746.5
257.4947,349.7
257.5136,825.5
257.6702,274.4
257.7412,314.2
257.7442,407.5
257.8094,686.6
257.8513,230.7
257.8756,136.8
257.952,330.2
257.9666,179.1
257.9886,149.1
258.0298,820.8
258.0682,100.3
258.073,165.2
258.0783,1173.7
258.1104,9668.5
258.2099,544.2
258.2865,545.2
258.3853,162
258.5586,165.2
258.5924,136
258.8178,2084.6
258.8377,922.4
258.8995,4485.4
259.0375,125.2
259.2134,419.3
259.3081,564.1
259.5128,19.9
259.5351,400.3
259.5374,640.9
259.539,637.4
259.8869,177.2
260.0457,268.5
260.2893,935.5
260.3343,371.3
260.6812,110.2
260.7289,1030.3
260.7972,145.9
260.8447,2148.6
260.8835,21.4
260.9004,137.5
260.9491,5061
260.9627,134.2
261.0458,538.2
261.1265,22
261.1717,194.3
261.2052,413.9
261.2447,16.5
261.6534,389.5
261.7876,148.4
261.8212,764
261.9269,18.7
261.98,376.8
261.9832,272.9
262.063,102.2
262.0862,614.9
262.0984,196.3
262.214,18.9
262.2702,225.9
262.4244,200.5
262.4632,187.4
262.4962,83.5
262.522,96.3
262.6111,232.9
262.6659,793
262.6714,712.9
262.6922,313.6
262.7188,39.8
262.7373,268.2
262.7903,121.3
262.8831,21.8
262.9161,30.6
262.9462,877.1
262.9559,154.7
262.9791,93.4
262.9938,115.6
263.013,752
263.0188,356.4
263.0414,215.2
263.0529,723.1
263.0849,2264.5
263.2734,159.3
263.429,417.7
263.4943,945.6
263.5593,124.1
263.5917,139.5
263.8161,1100.3
263.9492,387
264.2654,84.1
264.28,125.4
264.3566,1001.9
264.371,716.3
264.4314,155.8
264.6575,105.1
264.6738,391.1
264.7957,1086.7
264.8443,1768.1
264.8526,3451.6
264.8731,134.2
264.9335,389.2
264.9747,672.7
264.9884,11789.5
264.9977,890.3
265.0279,583.5
265.0351,9967.9
265.0471,3548.5
265.3287,19
265.4435,796.6
265.6105,120.7
265.7372,252.9
265.8068,922.4
265.8127,728.3
265.9576,355.9
265.9783,328.5
265.9902,946.8
265.9974,739.8
266.1465,255.7
266.1606,237.4
266.2442,750.6
266.3372,270.5
266.3666,208.8
266.429,224.2
266.5603,239.4
266.6747,1147.4
266.7306,22.1
266.8432,533.3
266.8497,2260.3
266.8943,2203.1
266.9281,531.4
266.9587,76.1
266.9991,161
267.0166,392.4
267.027,334.4
267.1928,176.5
267.3938,835.3
267.4929,140.7
267.5013,237.9
267.5177,247.7
267.5686,133.3
267.5848,505
267.6316,197.8
267.6673,194.8
267.6908,96.4
267.7144,1142.4
267.7195,138.3
267.9139,588.1
267.9738,96.4
267.9939,718.9
268.0092,76.8
268.0215,20.4
268.0294,666
268.1785,19
268.1857,20.3
268.2912,95.5
268.5861,365.8
268.6107,20.1
268.6551,1198.5
268.7288,440.4
268.8117,173.6
268.8319,24.3
268.8911,396.7
268.9147,95.8
268.9362,160.6
268.9972,690.1
269.0109,21.5
269.0284,389.1
269.0317,173.9
269.0448,16130.3
269.0486,44873
269.0913,573.9
269.1192,913.8
269.1539,94
269.4181,241.9
269.4496,610.9
269.4647,679.2
269.5512,470.3
269.6095,22.8
269.8228,528
269.8849,1187.4
269.9042,125.3
269.9515,21.4
269.9633,20.3
269.9893,259.6
270.0096,109.1
270.0165,28.8
270.0248,17525.4
270.0473,20735.2
270.1234,16.9
270.145,843
270.1765,193.4
270.2263,138.9
270.3945,155.2
270.4181,383.9
270.6142,589.7
270.6374,177.6
270.6449,104.8
270.7977,2327.9
270.8627,384.2
270.8758,169
270.9779,10865.4
271.0073,922.4
271.0236,1067.2
271.0281,1255.5
271.0509,330.4
271.0574,524.2
271.0641,618.8
271.0902,4157.1
271.2798,19.1
271.4139,355
271.468,544.2
271.5346,115.3
271.5541,626.8
271.6017,99.9
271.6463,109.2
271.6847,146.2
271.9105,139.8
271.941,127.5
271.9655,874.2
272.0205,536.9
272.0287,64
272.0434,53.5
272.0803,173.6
272.0932,131.1
272.1409,128.4
272.3072,164.3
272.4836,21.6
272.5931,99.9
272.674,145.9
272.7249,280.6
272.7809,19.9
272.7949,3695.2
272.8587,487.7
272.9143,388.5
273.0238,20.6
273.0308,656.5
273.0485,2939.9
273.1065,394.5
273.1494,1087
273.159,259.4
273.1822,150.6
273.2504,24.2
273.2538,154.2
273.317,149.6
273.5952,170.9
273.6268,561.1
273.6469,170.8
273.6778,157
273.8013,129.4
273.8309,940.5
273.9232,385.3
273.9451,548.9
273.9626,13555.7
274.0526,195.3
274.0689,58.2
274.0745,90.7
274.0926,1443.8
274.0993,18.9
274.1672,107.8
274.1794,90.3
274.263,124.3
274.3099,667.8
274.3326,92.2
274.4316,523.6
274.7922,462.5
274.9652,355.1
275.1409,655.3
275.1657,277.6
275.1928,407.3
275.2845,22.2
275.3906,127.1
275.408,372.8
275.4608,163.7
275.5104,229.8
275.8022,674.7
275.807,401.4
275.8767,144.2
275.8942,120.9
275.9988,62.7
276.0035,140.3
276.0849,22.3
276.1883,412.4
276.3063,143.2
276.3896,979.8
276.5026,20.6
276.5708,194.2
276.6543,214
276.7926,20.4
276.8301,661.5
276.8611,18.7
276.9109,43.9
276.9231,6832.7
276.9352,138.9
277.1911,95.2
277.3734,231
277.3801,282.5
277.4519,561.9
277.5056,398.1
277.5689,120
277.7997,629.4
277.8143,664.4
277.8423,109.1
277.9167,260.4
277.9479,153.1
278.0002,28.7
278.0191,302.1
278.0337,103
278.0673,391.9
278.1525,814.2
278.1565,915.2
278.1817,18
278.318,104.3
278.4312,122.7
278.4363,136
278.5203,219
278.6,837.9
278.6161,21.9
278.6627,154
278.6838,821.8
278.7206,1003.6
278.7755,699.2
278.7933,263
278.8046,297.3
278.8201,160.9
278.8464,21.8
278.8609,121
278.8889,80.6
278.9201,1097.2
278.9539,94
278.9873,1269.6
279.0042,1557
279.0566,41919.7
279.1385,945.2
279.1596,287.8
279.2639,339.4
279.2831,560.4
279.3138,143.5
279.3254,102.2
279.3597,18.4
279.4847,943.8
279.5006,96
279.618,104.9
279.6458,930.9
279.7769,128.5
279.8445,99.8
279.8981,438.9
279.9059,146.5
279.9204,524.7
279.9342,98.7
279.9744,96.9
279.999,24.5
280.0064,101.8
280.0119,1178.7
280.0364,351.8
280.0598,983.7
280.1282,329.2
280.1692,847.7
280.2665,240.3
280.2735,596.8
280.3549,1147.2
280.4375,339.7
280.4388,329.7
280.4597,669.8
280.4749,187.9
280.5043,159.8
280.5975,96.9
280.605,593.1
280.7368,161.3
280.7533,95.3
280.8129,22.6
280.8265,688.7
280.9623,580.9
280.974,253.7
281.0092,2416.4
281.0331,112.8
281.0513,268.1
281.0744,201.2
281.0851,17.1
281.1403,628.3
281.3184,142.2
281.4218,351.7
281.4504,131.7
281.4591,1066.4
281.6508,408.3
281.6681,135.2
281.6977,439.3
281.7768,807.4
282.0145,153.9
282.0329,168.1
282.0495,101.6
282.0647,339.4
282.096,349.7
282.1343,199.1
282.2146,28.6
282.2936,19.9
282.3137,804.8
282.4741,196.9
282.4836,635.3
282.5031,112
282.524,393
282.621,681.3
282.6515,108
282.6909,220.4
282.7101,199
282.8239,1540.9
282.928,151.4
282.9889,202
283.0283,460.1
283.0329,163.4
283.0798,825.9
283.1824,118.8
283.2248,565.5
283.357,787.5
283.4065,133.4
283.5162,467.2
283.7676,117.3
283.8019,99.1
283.874,413.9
283.9652,875.1
283.9854,140.4
284.004,83.4
284.0243,122.6
284.0531,36.5
284.063,125.4
284.1149,18.1
284.133,500.3
284.432,99.5
284.4453,17
284.5909,283.6
284.95,18.4
284.9707,940.2
285.0229,536.4
285.0302,121.5
285.0488,147.5
285.0546,735.4
285.0613,132.7
285.0699,353.5
285.0888,139.5
285.1234,3523
285.2077,195.7
285.4524,21.2
285.5247,900.4
285.5534,141.5
285.6562,176.1
285.6826,171.8
285.7982,149.1
285.8398,289.4
286.0197,3994.8
286.0964,27.1
286.1866,18
286.3994,20
286.4218,107.7
286.4396,629.3
286.5854,315.8
286.7304,18.2
286.7717,1752.1
286.8878,18
286.9519,4690.7
287.0231,381.3
287.0553,38066.4
287.1174,808.2
287.265,18.3
287.3114,21
287.3699,142.8
287.4596,313.4
287.5213,341.3
287.5757,365.3
287.7947,576.4
287.8111,27.1
287.9494,50.3
288.0077,135.1
288.0153,85.3
288.0204,395.6
288.0355,185.6
288.0588,1022.8
288.0849,61.1
288.1555,19244.4
288.1668,397.2
288.1989,564.4
288.2621,168.6
288.2848,18.9
288.2941,297.7
288.367,23.1
288.4226,17.8
288.4287,715
288.6244,100.7
288.666,119.3
288.7234,650.3
288.7577,287.1
288.7689,2480.3
288.8605,24.5
288.8729,333.5
288.8815,1369.4
288.89,1157.7
288.8958,2941.3
288.9063,9843.6
288.9124,8276.8
288.9165,8164.4
288.928,16774.9
288.9339,14876
288.9384,17046.4
288.9461,24869.8
288.9491,23702.5
288.957,24569
288.9678,20952.7
288.9745,15440.6
288.9811,10579
288.9854,9964.7
288.9952,6780.1
288.9975,6200
289.006,3532.1
289.0156,1806.4
289.0241,738
289.0525,141.2
289.057,135.1
289.1156,340.6
289.2142,21.7
289.4783,157.2
289.5481,665.5
289.6454,194.7
289.9363,1742.5
289.9646,199.4
289.9782,23.9
290.0252,214.1
290.0508,560.1
290.0959,125
290.1991,17.7
290.2217,868.8
290.4058,253.6
290.4299,676.2
290.4599,18.3
290.5449,204.7
290.7275,872.7
290.7364,194.9
290.7658,400
290.82,23.2
290.8356,242.8
290.8528,140.4
290.869,19.1
290.8922,162.3
291.0264,2883.1
291.1785,198.4
291.2816,297.8
291.3291,852.2
291.3432,338
291.569,401
291.7248,127.4
291.7714,157.9
291.7863,82.6
291.8076,555.8
291.8375,20.9
291.9434,180.5
291.9734,685.2
291.9896,18.3
292.0006,225.5
292.08,93.4
292.0865,264
292.1021,686.8
292.2074,565.4
292.3554,140.3
292.4092,119.1
292.4877,784.9
292.535,963.9
292.5529,273.9
292.665,678.5
292.7689,134.2
292.8007,190
292.8838,153.2
292.8973,406.9
292.9076,749.7
293.0722,2945.6
293.0894,248.6
293.0982,295690.7
293.1158,343.9
293.1789,1567.9
293.2076,608.3
293.4116,95.2
293.4466,311.1
293.533,240.1
293.6357,642.4
293.764,187.4
294.0951,142.1
294.1015,27188
294.136,155.8
294.414,129.8
294.5346,420.5
294.5709,199.1
294.6356,781.4
294.9454,517
294.9908,170.4
295.0306,868.8
295.0489,145.2
295.1025,1118.9
295.1946,34410.1
295.3514,171.7
295.4024,18.2
295.471,109.2
295.5761,21.6
295.5806,98
295.6114,17.1
295.6497,717.8
295.7759,617.9
295.7949,640.7
295.8381,579.9
295.8918,129.1
295.9083,424.2
295.9457,401.1
296.0659,177.8
296.1041,464.8
296.1742,159.8
296.1975,2270.7
296.2556,392.7
296.3208,554.7
296.4567,569.6
296.6186,337.9
296.6446,106.1
296.6601,175.3
296.7819,997.9
296.8261,727
296.8447,19
296.8572,21.6
296.866,24.4
296.936,479.6
296.9896,114.8
297.0311,22.5
297.0939,825.7
297.2149,634.4
297.2451,232
297.2793,19.2
297.3914,416.3
297.457,169.7
297.6085,524.3
297.9904,192.1
298.0021,20.6
298.0253,329.1
298.0422,16720.2
298.0531,671.7
298.112,191.9
298.1374,97.3
298.1934,89.2
298.3623,452.7
298.455,21.6
298.5346,279.5
298.5406,364
298.6577,94
298.6881,658.2
298.8056,1133.6
298.9193,441.5
298.9251,131.7
298.9366,98
298.9857,22.9
299.0232,727.6
299.0386,27.3
299.0457,469.2
299.1392,6089.3
299.1894,855
299.4303,371.3
299.4415,21
299.555,146.4
299.8524,24
299.8642,287.9
299.87,385.3
299.9061,776.7
300.0227,127.1
300.0354,1303.3
300.0486,25.8
300.0755,374.1
300.1474,3756.3
300.1942,210.8
300.2607,323.5
300.2939,582
300.3356,138.2
300.4959,229.3
300.5056,145.8
300.6558,122.7
300.7651,874.5
300.8193,24.7
300.9484,19.9
300.9944,338.9
301.0118,81.1
301.0385,22645.9
301.1184,112
301.1408,291.1
301.2117,5715.5
301.266,113.6
301.6424,329.4
301.8411,377.9
301.8524,326.7
301.8654,982
301.8752,24.1
301.9208,150.8
301.9732,499.8
301.9941,6787.7
302.0198,947.3
302.0342,23.4
302.0512,360.7
302.0641,2900.1
302.0733,24.3
302.4792,125.4
302.7112,941.7
302.7181,1085.7
302.7264,705.3
302.7455,1370.9
302.7541,184.1
302.7733,571.2
302.8297,2381.4
302.9255,1024.1
303.0278,975.4
303.0675,284.7
303.1091,313.9
303.1337,21.8
303.1767,206.4
303.2173,2952.2
303.2292,1943.9
303.6112,631.4
303.6185,231.1
303.7848,132.3
303.8505,443.4
303.9615,199.3
303.9859,265.4
303.9978,97.8
304.0308,21.8
304.0595,610
304.093,841.2
304.1808,865.7
304.3933,125.7
304.4836,190.7
304.5015,21.4
304.5863,241.7
304.7429,503.1
304.7916,140
304.8441,849.6
304.8811,22.6
304.8833,21.4
304.8938,23
304.9757,489
305.2122,157.2
305.233,1216.9
305.2458,612.7
305.3894,157.4
305.4162,543.3
305.4795,773.3
305.6769,172.9
305.7079,385.3
305.7279,157.3
305.8367,359.4
305.9829,88.2
306.0595,20.4
306.0916,552.9
306.1321,413
306.1415,370.1
306.1619,20.4
306.1843,578.7
306.3797,784.1
306.6922,135.7
306.7416,537.9
306.7639,655.5
306.8034,93
306.8418,30.2
306.8944,54.6
306.9266,147.4
306.9575,961.3
306.9771,1912.1
306.9937,136.7
307.0043,1023.4
307.0692,1079.9
307.1104,144.2
307.4984,18
307.5575,670.7
307.6618,129.1
307.7327,99
307.7528,220
307.8708,635.8
307.9105,115
307.9378,158.4
307.9565,285.3
308.1531,217.2
308.1667,157.9
308.4231,282.3
308.4712,95.8
308.5051,860.2
308.5121,22.9
308.6616,112
308.7076,110.9
308.7732,403.8
308.7795,82.9
308.7846,18
308.8083,145.1
308.8348,517
308.879,1756.8
308.8919,130.4
308.932,109.8
309.006,134.6
309.0374,1738.1
309.0704,108.2
309.1376,473.6
309.1512,40.3
309.2336,196
309.3272,344.8
309.4176,95.7
309.4484,24.8
309.4701,123.1
309.5512,144.3
309.5689,425.5
309.5967,679.2
309.6904,369.7
309.6963,17
309.8967,134.7
310.0204,23
310.0423,17.9
310.0699,377.6
310.08,546.8
310.0881,430.8
310.2723,147.9
310.2738,150.1
310.3389,351.9
310.4557,18.2
310.5452,106
310.6959,102.2
310.7911,105.3
310.8666,802.1
310.8759,1040
310.936,85.7
311.0032,51.8
311.1193,95.5
311.1659,678.1
311.2604,341.3
311.4823,120.6
311.4998,444.9
311.7369,138.4
311.7513,566
311.7665,134.5
311.8178,701.8
311.8492,472.2
311.8783,337.4
311.9482,1227.6
311.9988,140.9
312.0114,98.2
312.0193,264.1
312.0632,193.9
312.0797,155.1
312.2175,249
312.2227,178.2
312.2873,189.2
312.6161,118.9
312.7581,709.2
312.8468,174
312.9375,382.2
313.0024,26.1
313.0188,377.4
313.0692,134.9
313.121,121.6
313.274,26955.9
313.444,210.3
313.4538,740.3
313.533,383
313.6055,18.4
313.7608,204
313.8028,635.3
313.8708,94.2
314.0078,447.4
314.0147,5370.4
314.091,133.3
314.1411,405
314.2772,3840.4
314.428,280.8
314.4721,158.1
314.4798,617.7
314.5316,202.2
314.5648,290.9
314.5813,1042.5
314.6563,393.6
314.6834,108.1
314.7978,27.9
314.8369,6133.7
314.8501,22.2
314.8809,550.2
314.8906,112.6
314.8989,227.9
314.9826,17.2
314.9889,286.8
314.9991,4571.3
315.0179,567.2
315.0451,174
315.0551,8599.4
315.062,3961.8
315.0662,17735.1
315.0698,22255.3
315.0801,9173728
315.0877,25528
315.0896,17312.1
315.0917,10428.6
315.0942,6701.5
315.0962,6266.2
315.0984,4913.6
315.1003,4130.4
315.1047,2624.4
315.1109,1304.4
315.1213,129.1
315.1418,999.8
315.1614,4893.5
315.3092,166.4
315.3238,8189.5
315.4764,343.6
315.4858,818.8
315.5153,174.7
315.5881,874.7
315.6243,1566.1
315.6399,96.9
315.7009,133.2
315.7604,112
315.9683,340.1
316.0107,136.7
316.0536,34.5
316.0686,1056.1
316.0774,51232.2
316.0834,949181.7
316.2451,142
316.5522,331.6
316.6858,18.8
316.7133,140.6
316.7532,664.6
316.8402,108.7
316.8976,138.4
316.9651,887.1
316.9875,420.2
317.0564,659.2
317.0652,1291.1
317.0735,763.3
317.084,108885
317.1788,1442.2
317.1921,723.9
317.1966,81.5
317.3145,115.4
317.5387,164.4
317.5689,626.5
317.605,880.1
317.6467,204.2
317.9667,364.5
318.019,641.7
318.0875,10573.4
318.1496,625.8
318.268,222.2
318.2912,105.3
318.4351,868.9
318.5111,156.7
318.5671,105.6
318.5776,279.2
318.7925,573.6
318.8035,980.4
318.9075,522.9
319.0174,840.8
319.0497,197.6
319.1946,62343.4
319.305,1043.3
319.3394,834.8
319.3576,1102
319.5509,345.6
319.796,109.9
319.8082,1034.6
320.0069,230
320.0744,72.8
320.1981,6580.9
320.2587,2092.2
320.2689,213.9
320.5094,92.5
320.5498,230.4
320.5707,326.1
320.5986,96.7
320.6537,693.9
320.7932,23.5
320.8066,604.9
320.8305,25.5
320.8503,493
320.8562,150.1
320.9594,673
321.1845,130.9
321.2104,62111.4
321.2613,163.6
321.4852,199.6
321.5625,906.2
321.8166,52.5
321.8302,19.8
322.0091,224.8
322.2135,10214.2
322.5048,451.4
322.5254,18
322.5872,93.4
322.6557,162.8
322.749,159.4
322.8185,938.3
322.8272,108.4
322.8934,121.1
322.9318,426
322.9745,18.2
323.0203,7023
323.1276,141.3
323.2259,5452.1
323.2427,850.8
323.3311,262.3
323.53,989.1
323.5427,506
323.5962,619.9
323.6649,82.9
323.8765,151.1
323.9156,403.1
324.0017,10517.3
324.0676,28.1
324.4791,144
324.5195,125.6
324.6457,2203.3
324.6512,4563.1
324.6565,5304.8
324.6743,148.5
324.7994,17.7
324.8532,1074
324.973,909
325.0005,559.8
325.2117,15001.5
325.3636,390.5
325.4558,774.5
325.6059,564.5
325.7919,242.9
325.85,192.8
325.9307,214.2
326.0869,1088.7
326.12,184.5
326.1385,18.8
326.286,19.1
326.5169,400.3
326.5239,584.4
326.651,282.8
326.7278,573.2
326.8495,409.1
326.9365,211.8
327.0154,2569.6
327.1466,153.3
327.2273,25470.2
327.2795,431
327.3767,141.6
327.3801,257.9
327.3896,441.7
327.3989,110.7
327.6859,186
327.7118,626.9
327.7609,794.1
327.8318,1086.1
327.8695,146.4
327.8989,134
328.0153,965.2
328.0302,41.5
328.0652,651.2
328.1852,420.4
328.2307,3393.9
328.3508,95.3
328.4487,538.7
328.4619,363.3
328.4693,98
328.4978,1064.8
328.5045,778.8
328.6329,421.1
328.7736,154
328.8263,462.2
328.851,90.2
329.0959,1203
329.1148,447.4
329.3159,228.7
329.3396,240.8
329.6114,284.8
329.9041,237.3
329.9318,177.8
329.9838,151.8
329.9949,779.9
330.0275,95.6
330.059,150.7
330.1341,146.9
330.2726,202.1
330.4323,102.9
330.4505,222.4
330.4618,199.8
330.5902,120.2
330.5936,124.4
330.734,163.4
330.9169,488.5
330.9341,138.4
330.9646,291.9
331.0198,761.1
331.0261,917
331.0453,109346
331.0541,1282592.1
331.3022,134.3
331.59,375.2
331.6281,1176.5
331.761,347.7
331.9239,368.1
331.9476,18.4
332.0249,42.6
332.0482,5236.5
332.0574,115604
332.1596,528.4
332.3676,162.6
332.4327,178.8
332.4412,562.2
332.5202,19
332.5897,645.3
332.6913,170.9
332.7752,117.5
332.809,49.3
332.819,251.4
332.8899,359.9
332.931,600.8
332.9796,1067.5
333.0392,239.7
333.0522,72466.1
333.0578,12502.6
333.0797,379.5
333.1139,18.5
333.1582,19
333.2345,940.7
333.4401,109.6
333.4528,200.1
333.4952,268.2
333.5032,137.5
333.5584,95.6
333.6107,135.5
333.7474,152.1
333.867,183.1
334.0555,6146.4
334.0736,581.7
334.2277,110.6
334.3566,131.6
334.3878,137.9
334.7313,185.2
334.8157,191.7
334.8174,191.7
334.837,28.5
334.9012,114.5
335.0383,337.1
335.081,126.8
335.1528,140.4
335.167,2363.2
335.2556,136.7
335.3937,256.7
335.5652,584.6
335.5748,116.7
335.6304,166.7
335.7874,175.4
335.9677,188.6
335.9814,528.9
336.012,27.7
336.1559,675.6
336.1705,216.9
336.3036,564.4
336.3691,949.6
336.3867,95.4
336.4348,21.8
336.4424,732.6
336.7464,293.2
336.8051,512.3
336.8121,18
336.8587,82.2
336.9209,100.1
336.929,542.2
337.0363,11612.5
337.0496,22549
337.0621,632929.8
337.1827,2068.6
337.2255,730.8
337.2324,807.4
337.2738,4603.6
337.2864,109.3
337.2984,99.5
337.6015,589.5
337.634,329
337.6459,189.3
337.7239,1087.2
337.7764,97.1
337.8569,171.8
337.9543,98.7
338.0268,396.5
338.0497,320.3
338.0654,56311.9
338.1863,23.3
338.2805,121.7
338.3424,26.2
338.4944,193.1
338.7085,281.5
338.7426,215.1
338.7678,610.5
338.9213,1794
338.9634,569.1
338.9887,853.3
339.0383,3516.4
339.0473,331.9
339.0657,1797
339.136,482
339.1893,526
339.1991,347.1
339.2105,94.8
339.2508,10196.2
339.29,3608.8
339.3129,580.2
339.44,273
339.7645,143.5
339.9668,372.7
339.9757,2053.9
340.0569,132.6
340.2453,94
340.4728,91.6
340.5025,81.8
340.5142,473.4
340.6725,686
340.7823,613
340.8421,97.6
340.9069,136.1
340.9344,535.9
340.9373,585.4
341.0183,58.9
341.1226,378.6
341.3049,3572.1
341.32,18.3
341.6787,940
341.7517,141.9
341.8575,700.1
341.9635,19.2
341.9886,281.7
342.0051,247.4
342.0152,8705.8
342.0464,746.8
342.062,1011.2
342.0799,198.1
342.3094,1372.9
342.4683,18.6
342.4837,423.6
342.5689,100.5
342.6792,210.8
342.7948,22.3
342.8278,199.6
342.8446,85.1
342.8691,995.4
342.8878,946.5
343.0154,293.2
343.0258,827.6
343.0443,372.5
343.0824,385
343.1393,206.7
343.1481,370.2
343.1826,1034
343.1947,12658.6
343.2501,364.2
343.3654,142.3
343.3808,224.1
343.4617,740.1
343.6055,143.7
343.8635,279.9
343.9063,180.9
343.9527,19.8
343.9809,140.3
343.9884,686.4
344.1294,146
344.2588,613.8
344.3479,849.5
344.472,131
344.4983,138.1
344.5265,714.2
344.5736,231.7
344.7696,165.1
344.8204,373.5
344.8369,148.1
344.8611,17.7
344.9068,22.6
344.9125,971.5
345.0231,117.5
345.0427,555.2
345.192,352.4
345.2102,1329.2
345.2949,739.8
345.3004,1064.7
345.6573,729.1
345.7519,19.5
345.8148,122.6
345.9838,40288.9
346.0091,389.1
346.0208,378
346.0409,225.8
346.2,322.7
346.2467,250
346.3085,876
346.5979,368.1
346.6448,229.8
346.6587,139.7
346.7108,149.4
346.7571,93
346.8417,19.1
346.8881,531
346.9773,739.5
346.9876,2396.1
347.0175,5937
347.1084,465.9
347.1946,191.9
347.2359,164.9
347.46,906.4
347.5158,742.7
347.5859,97.1
347.9084,655.8
347.9164,167.2
347.9803,96.4
348.005,141.1
348.0723,729.9
348.0813,195.5
348.2286,91.4
348.287,130.3
348.379,551.9
348.5083,260.8
348.5868,396.5
348.6243,714.4
348.7402,181.1
348.8128,368.5
348.8277,224.6
348.8933,98.2
349.0179,1613.2
349.2351,252
349.5361,89.8
349.5491,519.4
349.6132,303.9
349.6951,425.8
349.7271,119.8
349.8122,20.5
349.8526,298.2
349.9437,182.4
349.9937,129
350.0188,922
350.0571,91.6
350.3167,20.5
350.5251,97.6
350.6707,142.5
350.7581,645.4
350.8997,190.5
350.9257,981.5
350.9506,577.6
351.0072,21
351.0683,385.3
351.1194,139.4
351.1517,277.2
351.3694,313.7
351.4428,111.3
351.6581,237
352.0215,142.6
352.0756,112.5
352.1041,335.3
352.2727,19.9
352.3975,706.3
352.6085,191
352.6976,92.2
353.0271,153476.4
353.0361,253307.6
353.3599,146.8
353.5042,323.4
353.5256,566.8
353.531,231.5
353.7234,543.7
353.822,514.2
353.8926,79.1
353.9495,647
354.0121,117.9
354.0302,11063.3
354.0394,23780.4
354.1127,95.2
354.1714,93.8
354.2565,162
354.3285,558
354.5502,196.8
354.6594,136
354.8939,476.5
355.0116,819.6
355.0343,15422.8
355.0701,436.7
355.1959,118.8
355.2068,538.3
355.2198,950.7
355.2378,678
355.306,94.8
355.3136,110.6
355.3603,665.7
355.7466,99.3
355.8456,108.9
355.868,19.7
356.0149,195.3
356.0266,209.1
356.0388,333.1
356.0696,46.4
356.1057,190.5
356.2052,270.4
356.2963,121.3
356.3112,324.7
356.3223,522.6
356.381,584.8
356.419,664.2
356.6174,575
356.7139,651.7
356.8224,643.2
356.8695,777.3
356.8957,23.9
357.0017,337.1
357.0088,313
357.0202,149.3
357.0844,267.5
357.3999,146.3
357.5205,278.3
357.6615,947.1
357.6728,184.2
357.6848,1171.6
357.6969,247.4
357.8716,599.4
357.9448,285.9
357.9506,23.4
357.9665,225.4
357.9775,1018.8
358.0108,102.7
358.1597,20.5
358.2219,345
358.2476,205.5
358.2558,383.7
358.2795,305.6
358.3299,196.2
358.5336,113.5
358.6266,133.3
358.6926,107.5
358.7114,261.2
358.8432,868.5
358.8592,19.4
358.9371,144.3
358.9643,135.4
358.9909,116
359.0076,231.2
359.0316,16060.3
359.044,440546
359.1393,139.7
359.1672,274.9
359.3728,289.9
359.3915,18.7
359.4063,1079.6
359.4174,153
359.4254,1518.6
359.4586,658.5
359.4751,842.9
359.4956,1082.1
359.5002,1275.1
359.5085,961.3
359.5352,403.9
359.558,204.5
359.7142,672.5
359.8349,457.3
359.9624,143.7
360.0343,1063.6
360.0474,40988.8
360.1106,24.7
360.3093,663.5
360.3238,147.7
360.4048,744.2
360.7417,234.9
361.0202,6192.1
361.0483,1242
361.257,238.4
361.2741,1045.2
361.3418,181.9
361.6795,19
361.7283,144.3
361.7846,204.6
361.9576,13238.5
362.0223,93.9
362.2455,356.9
362.4537,111.6
362.4665,186.1
362.6985,944.5
362.8185,24.8
362.9032,540.7
362.9264,1012.1
362.9924,100.4
363.0455,181.7
363.2866,928.6
363.6889,247.1
363.6992,121.7
363.7806,20.9
363.7879,635.8
363.8886,582.4
363.922,581.6
363.9971,2964.2
364.4912,284.8
364.6947,121.3
364.7635,857
364.9844,375
364.9995,208
365.0271,339.3
365.0945,551.4
365.1048,815.9
365.2181,376.6
365.6175,106.5
365.6313,140.9
365.699,151.4
365.8163,21.6
365.8794,230
365.9861,63.1
366.1232,257.2
366.1575,157.2
366.21,641
366.672,209.4
366.8208,155.9
366.8479,131.7
366.878,100.4
367.0164,212.5
367.0683,187.3
367.0794,154.9
367.1034,170.8
367.1217,1912.2
367.1367,109.6
367.195,1110.5
367.3569,319
367.8541,980.1
367.9514,558.4
367.9588,19.1
367.9913,2396.6
368.0026,413.5
368.0842,202.4
368.3628,112.2
368.3818,164.3
368.6595,160.2
368.7322,405.8
368.8471,468
368.9307,17.8
368.9835,20.1
368.9923,2453.2
369.0007,22480.3
369.01,9519.6
369.1057,331.5
369.2092,203
369.2618,676.4
369.3522,54.1
369.4203,1051.2
369.711,22.7
369.7207,584.6
369.7596,126.8
369.794,826.3
369.9714,23.7
370.0039,96.9
370.06,550.1
370.2574,1118.2
370.4043,405.9
370.6416,1149.3
370.6511,119.2
370.8614,192.2
370.8991,126.7
370.9998,2449.2
371.0092,148.9
371.0505,185.1
371.0567,580.4
371.2113,130.7
371.2654,938.7
371.313,611.5
371.3947,386.7
371.4609,100
371.5908,179
371.6105,185.8
371.7329,17.5
371.7483,951.8
371.9029,1161.8
371.9095,587.1
372.0292,171.9
372.2115,94.1
372.392,219.9
372.5231,422.7
372.7388,395.6
372.9954,264.3
373.0137,346.8
373.0222,572.1
373.093,101
373.1296,327.4
373.1429,611.6
373.1509,21.8
373.2506,183.5
373.2641,819.5
373.3191,411.2
373.3557,189.7
373.3852,135.5
373.4019,244
373.4609,870
373.9499,61.6
373.981,357
374.0019,136.5
374.2917,1011.7
374.8168,836.6
374.8649,364.6
374.9749,488.2
375.0091,151117.3
375.018,132136.5
375.0735,134.4
375.1617,143.6
375.1965,451.7
375.2874,123.6
375.5099,20.3
375.6172,226
375.8293,722.9
375.9651,70.7
375.9904,148.3
376.0123,10031.6
376.0214,11896.6
376.142,900.8
376.2213,146.6
376.3347,639.2
376.3439,1608.4
376.373,186.5
376.4405,426.2
376.8368,18
376.9269,95.5
376.9669,102.3
376.9942,2197.5
377.0027,90.5
377.0163,5362.7
377.114,196.7
377.4748,580.4
377.5007,99.1
377.6067,158
377.6133,620.2
377.8355,19.3
377.9316,910.6
378.2333,119.5
378.2999,214.7
378.3343,146.2
378.4208,691
378.9757,141.8
378.9903,352
379.2351,80.5
379.4956,360.5
379.6391,817.7
379.793,229.3
379.9639,978.2
380.0478,19.7
380.2456,394.8
380.2635,506.1
380.2805,18.6
380.3142,163.2
380.3977,88
380.4332,604.6
380.5706,112.9
380.5799,181.3
380.614,148.9
380.6433,719.7
380.6571,168.1
380.7704,524
380.9096,324
380.999,810.8
381.0134,22901.3
381.026,255230.1
381.1046,21.2
381.2311,394.1
381.3738,886.7
381.5911,120.6
381.6631,103.8
381.8011,119.4
381.8675,95.8
382.0292,20263.4
382.1019,366.1
382.3287,24.1
382.4755,236.3
382.6448,444.8
382.7672,1444
382.8547,542.6
382.9231,379.1
383.0112,734.5
383.0311,387.3
383.0524,280.9
383.1163,168447.2
383.133,273.1
383.1446,1014.2
383.1543,303.8
383.2441,451.7
383.3209,276.4
383.6779,136.8
383.6963,113.9
383.9463,23.2
383.9656,1034.7
384.1195,20787.3
384.2157,547.4
384.2889,19.6
384.4139,213.5
384.7488,301.3
384.8308,140.5
384.9734,1515.1
385.12,1505.8
385.1851,105.3
385.2281,624.6
385.266,19.8
385.3452,554.9
385.6906,125.6
385.7049,421.3
385.8207,277.6
385.9452,19.7
385.9599,91.1
385.9793,11764.4
385.9957,160.1
386.0634,802.7
386.1027,634.7
386.1305,142.3
386.1495,105.7
386.1832,411.9
386.2092,176.3
386.3662,171.6
386.4836,107.6
386.778,569.4
386.8226,117.2
386.8414,152.1
386.9754,122.9
387.0031,1216.9
387.136,23.2
387.5003,101.2
387.5044,201.4
387.5653,382.7
387.5905,167
387.7366,18.6
387.9782,1187.7
388.0513,350.3
388.1359,329.4
388.1851,2668
388.2736,158
388.3791,128.7
388.4307,984.5
388.7107,415.9
388.8144,652.7
388.8664,160.1
388.9705,101.9
388.9965,841
389.0258,163.2
389.4496,406.9
389.4742,21.5
389.621,98.8
389.7065,107.7
389.961,89.8
389.9736,43269
390.1111,940
390.1382,902
390.4207,134.9
390.7102,429.4
390.7979,564.2
390.9064,549.8
390.9299,382.9
390.9445,830.1
390.963,135.7
390.974,12378.1
390.9827,28446.3
390.9919,17097.3
391.0072,175.4
391.1978,345.1
391.2319,586.5
391.2505,183.4
391.2927,625.6
391.3896,175.7
391.495,388.8
391.6086,525.3
391.735,342.3
391.9443,119
391.9865,203.1
391.9951,425.6
392.0042,51.2
392.131,117.9
392.2026,405.8
392.3571,375.2
392.4003,119.7
392.5184,661.7
392.7965,769.9
392.8979,423.8
392.9817,2935.9
392.9924,703.2
393.0284,846.6
393.0473,463.7
393.3176,94.6
393.3393,488.7
393.4785,424.9
393.5034,147.6
393.7022,88
393.8343,115.1
393.8831,850.6
393.9257,628.2
394.4087,142.3
394.456,393.5
394.7348,207.4
394.7934,498.4
394.9799,150.9
395.0246,280.7
395.2606,137.1
395.5904,380.6
395.8898,134.5
395.966,744.8
395.9743,190.1
396.0233,98.7
396.1088,106.6
396.1715,226.5
396.2305,510
396.3507,171.6
396.3747,163.4
396.5481,321.8
396.6128,361
396.6271,134.1
396.6646,123
396.7433,493.8
396.7975,101.2
396.9321,21.9
396.9799,614.9
396.991,177156.9
396.9999,88362
397.2557,96.5
397.2693,19.4
397.2993,18.3
397.3588,156.2
397.3925,152.5
397.4141,714.8
397.6273,144.1
397.6506,92.3
397.7172,108.4
397.8029,160.8
397.8266,151.3
397.919,17.5
397.9665,27.6
397.9941,14587.9
398.0032,5037.1
398.2419,5186.6
398.3182,451.6
398.5138,653.2
398.6513,108.4
398.6667,94.1
398.7412,1320.2
398.7622,6792.4
398.9631,448
398.9829,235.6
398.9979,578.2
399.2454,688.9
399.2648,989.7
399.3091,146.5
399.3382,185.3
399.7347,95.7
399.8207,96.7
399.8326,118.7
400.0225,91.2
400.0411,134.6
400.3884,23.1
400.4608,96.7
400.6372,374.3
400.7377,1160.4
400.8278,609.4
400.8625,271.1
400.9094,21.8
400.9841,1463.7
401.1099,512.4
401.6075,114.6
401.6191,262.1
401.7296,462.2
401.8497,272.1
401.9529,1410.5
402.1851,555
402.4051,119.8
402.4335,20.3
402.5091,178.9
402.5196,127.7
402.7697,151.4
402.9091,99.7
402.9563,185.9
403.0079,255694.8
403.0209,209.4
403.1152,439.2
403.2155,766
403.2574,191.8
403.3578,149.3
403.4213,113.6
403.6574,118.6
403.9426,746.1
403.9517,400.7
403.98,216.4
404.0111,23342.5
404.0274,321.4
404.0643,99
404.1232,724.6
404.34,900
404.3682,96.4
404.4242,23.9
404.5266,439.3
404.7864,221.3
405.013,1377.8
405.053,160.4
405.0608,294.1
405.1009,591
405.1773,1076.9
405.3541,424.7
405.4114,525.2
405.5068,96.9
405.555,373.1
405.5608,149.2
405.6697,300.2
405.7459,178.8
405.7654,355.5
405.8543,111.8
405.9474,28198.6
406.1204,392.1
406.1606,235.4
406.1725,24
406.2643,838.6
406.2929,787.2
406.3294,575.4
406.5654,222.8
406.6087,98.6
406.7729,573.6
406.8372,100.6
406.9554,1804.9
407.1104,127
407.1524,95.4
407.2991,173.5
407.3329,139.3
407.4071,270.3
407.4581,98.4
407.9009,88.7
407.9333,93.5
407.9459,303.1
407.9569,272.9
407.977,580.1
408.0642,369.4
408.08,97.9
408.7154,363.7
408.7698,1484.6
408.9543,384.9
408.9842,2329.3
409.0639,362
409.0902,212.4
409.249,124.7
409.7063,149.7
409.7662,643.1
410.1862,257.5
410.1993,566.2
410.2194,245.7
410.4501,99.2
410.4971,390.8
410.7671,350.6
410.8557,872.1
410.8628,390.8
410.9689,449
410.9857,574.1
411.0745,141.8
411.207,98.7
411.6289,166
411.7702,1265.9
412,230.6
412.0314,293.5
412.121,92.4
412.3214,2093.1
412.355,644.8
412.3704,95.4
412.4093,145.8
412.6572,168.3
412.7141,553.6
412.9284,163.4
412.9644,43802.1
412.9739,16367.3
413.1353,92.9
413.2662,8284.5
413.3244,336.7
413.455,224.3
413.4639,206.3
413.6276,414.2
413.7516,333.4
413.7769,135.1
413.823,338.8
413.9394,152.3
413.9691,1119
414.0011,357.2
414.2702,436.9
414.298,150.4
414.45,234.9
414.9637,1267.7
414.9725,458.4
414.9974,1744.2
415.0379,57.2
415.2219,616.1
415.2913,178.6
415.3349,140.9
415.4509,90.3
415.5975,237.9
415.6666,367.5
415.9015,125.7
415.9582,331.6
416.1353,8497.5
416.2142,32282.4
416.4375,171.2
416.5713,244.3
416.6167,103
416.8211,213.1
416.8359,17.8
417.0386,363.3
417.0653,19.6
417.2175,2424
417.4576,108.7
417.6162,115.6
417.9142,138.7
417.9282,335.4
418.0352,884.8
418.0997,222
418.1449,378.6
418.3486,225.6
418.4339,185.1
418.6072,921.7
418.6866,163.2
418.7785,272.3
418.8488,921.8
418.9818,102965
419.076,139.1
419.255,609.6
419.3364,182.9
419.3517,386.2
419.4186,196.4
419.458,477.4
419.6147,713.9
419.7806,340.6
419.9171,266.4
419.9852,6854.4
420.0372,157.5
420.1352,127.2
420.3561,17.4
420.5659,245.1
420.7321,608.6
420.7436,93.1
420.882,1118.9
420.9459,149.9
420.9512,91.9
420.9795,3591.2
421.1149,153.2
421.1463,129
421.3991,1129.1
421.4165,173.9
421.7952,535.1
421.9214,7552.6
421.9583,1115.8
421.9651,178.3
422.4906,363.6
422.689,1327.3
422.924,150.7
423.0296,19
423.0606,652.7
423.3026,126.9
423.7766,19
423.7948,160.9
423.8931,862.2
423.9183,302.9
423.9293,85.9
423.9799,110
424.1385,90.3
424.5008,650.5
424.6222,447.6
424.9093,135.1
425.0295,54.5
425.0576,128.6
425.3705,647.5
425.4269,99.1
425.6438,86
425.7172,151.1
426.291,329.9
426.366,899.1
426.6025,712.3
426.7921,17.5
426.8254,155.5
426.9417,39.6
427.1585,1198
427.2902,777.4
427.6419,217.5
428.0479,1124
428.44,734.1
428.7213,283.5
428.7555,271.4
428.9238,167.9
428.9376,11401.3
429.0067,402
429.0141,216
429.0286,789.6
429.0548,1145.9
429.0888,488.4
429.209,316
429.4346,217.1
429.5905,867
429.7105,222
429.7404,21.1
429.7504,85.3
429.7829,426.1
429.9403,119.4
430.0364,1026.5
430.1714,16.9
430.5646,170.9
430.8937,139.3
430.936,224.9
431.0856,24.1
431.1465,434
431.2169,2701.8
431.3246,159.7
431.3531,174.8
431.3739,18.6
431.6726,835.6
431.8422,133.9
431.9063,22.1
431.9502,100.5
432.009,276.5
432.0278,175.3
432.6435,93.5
432.893,634.1
433.0954,541.5
433.2498,91.2
433.2692,108.4
433.4337,18
433.5311,449.8
433.9846,103.1
434.0148,825.4
434.4212,171.2
434.6758,207.1
434.6921,139.1
434.8506,418.7
434.8621,751.2
434.9451,19.2
434.9559,21790.3
435.0035,532.3
435.2088,449.3
435.2674,797.7
435.9161,202
435.9484,93.9
435.9582,977.5
436.0054,531
436.2289,136.6
436.7041,152.7
436.8493,110.1
436.8882,166.8
436.9194,104.5
436.9544,646.3
436.9749,181.9
437.2039,774.6
437.8125,125.2
437.9058,198.6
438.1949,1368.7
438.2401,203.9
438.2676,23.3
438.3854,109.8
438.4035,100.2
438.8121,19
438.8956,85.6
438.9718,2066
438.9845,6635
439.0559,233.3
439.3578,140.2
439.7683,18
439.9307,873.1
439.9878,396.2
440.3683,142.2
440.454,254.8
440.7034,142
440.7283,20.3
440.7522,476.1
440.8045,200.8
440.8989,141.1
440.9822,1035.1
441.158,924.3
441.2916,191.2
441.2973,231.9
441.5387,649.4
441.5658,700.7
441.748,18.9
441.8577,739.4
441.8758,535
441.902,18.4
441.9869,99.4
442.1558,177.8
442.165,1021.8
442.1859,209.5
442.3943,270.2
442.5103,152.6
442.6152,302
442.7769,190.7
442.7895,993.2
442.9369,128.4
442.9464,673
443.0307,118.3
443.0702,139.8
443.1046,120.5
443.1259,617.7
443.159,160.9
443.2581,177.3
443.8383,95.7
443.9482,147.3
443.96,19.6
443.9728,47.5
444.0765,157.3
444.6473,361.9
444.6815,100.5
444.9111,332
444.9389,404.4
444.9651,937.5
444.9808,92.4
445.0754,369.7
445.0845,19.3
445.129,833.4
445.2296,975.2
445.2517,187
445.2546,190
445.269,1155.4
445.2804,976.8
445.3029,308.8
445.3332,852.4
445.3821,153.1
445.4507,625.6
445.7638,19.7
445.7917,450.7
446.0338,268.6
446.3329,563.1
446.5217,199
446.5929,131
446.6099,332
446.6248,166.9
446.6428,187
446.6695,406.1
446.7588,117.9
446.8338,231.1
446.8543,133
447.0709,209.8
447.1565,743.5
447.195,1111.9
447.3729,207
447.9319,3935
448.0245,493.7
448.1337,146.3
448.2727,673.3
448.2969,19.6
448.3396,163.3
448.6654,450.4
448.6911,103.4
448.8897,110.1
448.933,4339.4
449.0389,17.6
449.1542,2585.5
449.3173,93.5
449.3608,24.5
449.5665,150.1
449.686,335.5
449.929,140.4
449.9982,238.4
450.1578,427
450.193,115.6
450.6059,90.4
450.6192,194.4
450.785,200.8
450.9287,840.2
451.1498,168.5
451.2027,125.2
451.9345,96.7
452.0741,906.9
452.1537,46.1
452.2089,212.9
452.485,388
452.5398,153.8
452.5722,112.4
452.6526,160.2
452.6778,229.8
452.8137,22
452.9178,103.5
453.1734,2097.7
453.2854,92.4
453.5007,278.9
453.8899,326.8
454.0318,638
454.0539,19.6
454.1323,141.9
454.2785,103.7
454.5185,220.3
454.5709,146.4
454.7434,115.9
454.7602,147.4
454.8736,256.3
454.9496,38011.3
455.0054,401.2
455.2741,152.2
455.3375,169.5
455.4311,698.6
455.9532,1999.4
456.1649,148.9
456.173,489.3
456.4788,127.1
456.6994,601
456.7536,17.9
456.9473,7326.8
457.2328,7181
457.4535,220.5
457.4935,337.7
457.5286,771.3
457.6029,214.2
457.7627,159.8
457.8848,109
458.0481,104.2
458.2165,21595.7
458.3907,161.3
458.5688,121.4
458.6641,452.1
458.7357,772.1
458.7858,403.8
458.8882,196.3
458.9615,4123.3
459.2197,2977.3
459.2484,341984.8
459.3851,131.3
459.4215,159.4
459.6122,303.8
459.8115,146.2
459.8563,98.1
460.2191,601.4
460.2517,66902.8
460.5928,386.3
460.7216,325.9
460.7583,589.8
460.8303,208.2
460.9664,77734.6
461.2554,4576.2
461.2787,18.9
461.3209,1043.3
461.5492,26.9
461.5667,18.3
461.5992,230.5
461.6862,138.3
461.832,146.5
461.9028,155.7
461.9701,4920.8
462.0803,1008.5
462.578,107.2
462.9635,19582.1
463.1628,456.6
463.2024,1718.5
463.3918,179.1
463.6743,19
463.7404,161.8
463.8842,401.5
463.9057,2098
463.9667,1145.4
463.9827,112.1
464.0778,371.4
464.2105,802.7
464.3445,290.2
464.3582,695.2
464.373,165.2
464.9045,982.5
464.9784,8558.1
465.117,264.5
465.1491,801.4
465.4315,797.3
465.5391,828.4
465.8016,608.5
465.931,200.7
466.7293,417.4
466.7498,696.4
466.9574,385.4
467.0585,21.3
467.3309,272
467.5027,519.9
467.6005,396.5
468.0942,636.1
468.3074,1085.9
468.4045,18.3
468.4949,887.1
468.5825,101.9
468.6199,257.9
468.6368,165.1
468.8101,379.2
469.1125,121.5
469.1467,876.6
469.7398,152.9
469.8708,192.8
469.8821,93.5
470.0171,214.8
470.1614,576.5
470.2349,296
470.4948,197.8
470.5684,372
470.7128,97.9
470.851,720.4
470.9236,15496
470.9953,4263.5
471.0794,100.4
471.4043,103.8
471.5501,521.8
471.7531,344.8
471.7897,113.5
471.8867,108.6
471.9653,137
471.9858,209
472.0549,314.9
472.4305,121.6
472.4897,21.7
472.6942,193.6
472.7009,107.8
472.7497,590.1
472.9213,3011.8
472.9834,744.7
473.0076,546.4
473.0118,439.3
473.041,140.7
473.0505,191.5
473.2634,883.4
473.3129,116.1
473.3454,107.7
473.3983,995.8
473.5164,20.5
473.7859,369.7
473.901,750.8
473.9249,980.3
474.1131,595.5
474.1905,10308.8
474.8238,132
474.8333,190.7
474.9986,19.8
475.1381,88.3
475.2224,20309.4
475.6672,377
475.8017,317.6
476.0891,36
476.2255,2467.3
476.2916,409.3
476.2947,429.8
476.3138,153.3
476.3384,324
476.4506,154.9
476.4948,868.5
476.5115,131.5
476.6189,133.4
476.7434,830
476.7911,391.5
476.8189,373.2
476.9404,49426.6
477.0489,103
477.2205,864.4
477.3027,182.4
477.4852,436.5
477.5819,312.2
477.681,151.3
477.9433,3776.2
478.3293,49010.3
478.6124,443.6
478.8874,762.4
478.9377,14737.6
478.9942,710.5
479.0164,541.5
479.0961,79.5
479.2596,213.7
479.2851,852.7
479.3327,5235
479.3512,410.1
479.6914,21.3
480.1725,203.6
480.1982,1035.2
480.2929,240.6
480.344,249.8
480.4588,553.9
480.8261,18.5
480.9518,3990.8
480.9923,341.1
481.0241,792.2
481.0618,91.2
481.0916,1658.7
481.1561,103.7
481.2311,939.7
482.0953,294.7
482.2553,205.9
482.3236,663.4
482.3595,1040
482.6732,196.8
482.8579,297.2
483.0676,375.1
483.0861,55.5
483.1583,136.9
483.2483,98646.1
483.9037,238.6
483.9533,871
484.0086,179
484.2515,21323
484.2896,149
484.3375,121.8
484.4011,280.8
484.453,413.4
484.6949,391.9
485.1147,23.3
485.208,448.3
485.264,62773.4
485.5783,91.5
485.6236,20.9
485.8669,19.6
486.215,134.4
486.2673,14340.9
486.3494,583
486.3583,98.9
486.5168,103
486.7433,230.9
486.8368,597.8
486.8978,1519.4
486.9693,1739.7
487.2237,631.4
487.2796,94991.5
487.3394,3094.4
487.3628,924.3
487.4413,324.7
487.6099,152.4
487.7774,207.2
487.8614,159.7
487.9795,377
488.0108,657.5
488.0293,209.4
488.2248,18.5
488.2829,22071.7
488.3425,1101.3
488.3862,717.9
488.4357,280.8
488.4716,17.1
488.5089,107.2
488.8664,673.8
488.8951,1139.6
488.9596,125.7
489.0354,312.6
489.0585,20.1
489.0891,200.4
489.125,577.4
489.1571,721.5
489.2163,1015.5
489.2416,185.9
489.2584,130.5
489.2884,1787.3
489.3004,129.5
489.3551,7218.5
489.3731,536.8
489.524,791.4
489.6925,238.4
489.7433,27.1
489.8302,19.3
489.9631,92.5
490.0715,20.3
490.2904,7383.8
490.3586,1135
490.4681,268.9
490.6024,817.7
490.8698,470.7
491.0738,586.1
491.2712,726.3
491.2996,622
491.3704,6747.1
491.3915,288.9
491.4613,20.1
491.536,337.4
491.6222,129
491.764,188.7
491.898,253.2
492.3698,152.2
492.6293,327.6
492.7405,109.2
492.8907,104.7
492.9142,8293.4
492.9711,625.3
493.0772,111.4
493.323,106.9
493.4906,637
493.5273,1007.6
493.5435,206.6
493.7281,111.2
493.828,113.3
493.9169,472.9
493.9587,222.2
494.3241,6034
494.3335,220.8
494.5979,950.4
494.7116,190.5
494.9115,2978.8
494.9391,762.4
494.9677,511.5
495.0694,443.3
495.1319,159.5
495.244,707.4
495.4455,132.7
495.5061,18.1
496.0143,20.4
496.0565,201.8
496.2163,22.7
496.3398,341982.8
496.4152,19
496.8854,21.1
496.9312,511.8
497.0886,210.8
497.2304,332.7
497.3431,76202.7
497.5155,291.2
497.5219,258.4
498.3462,5816.9
498.4629,511.1
498.5351,586.7
498.597,176.3
498.622,977.3
498.8306,860.2
498.9874,18.2
499.2215,2321.2
499.7344,20
499.7531,105.6
499.848,952.1
499.9054,98.7
499.9391,593.8
500.0139,218.3
500.0501,425.2
500.0563,764.4
500.0596,807
500.094,865.4
500.3108,1221.6
500.3324,995.8
500.4577,258.7
500.5578,227.9
500.6806,258.8
500.694,163.4
500.8601,266.2
501.2375,4633.5
501.2584,927.6
501.3538,532.3
501.3895,18.3
501.7007,910.3
501.8454,102.6
502.1836,999
502.2304,268.9
502.2455,109.7
502.2961,680.5
502.329,22070.3
502.5341,269
502.666,117.3
502.824,952.2
502.9744,20.6
503.0598,139.5
503.0796,99.1
503.1078,150.8
503.137,227.7
503.2539,5699.1
503.3036,173.3
503.3321,4280.7
503.4504,165.5
503.5736,144.5
503.7078,20.4
503.7677,971.2
503.9606,104.5
504.0811,176.2
504.3064,5356.3
504.3248,176.6
504.3439,7228.4
504.9579,664.1
504.9918,164.1
505.045,92.1
505.3043,320.7
505.3493,2428.8
505.4306,408.4
505.8913,109.7
505.9281,458.8
506.0145,268
506.0833,122.4
506.1125,125.9
506.2133,663
506.2646,1509.3
506.3603,9380.4
506.5133,706.2
506.5291,585.7
506.7283,99
506.7932,85.3
506.806,21.9
506.8411,25.3
506.8917,1610
506.9565,358.6
507.0382,113
507.057,265.6
507.1821,139.6
507.208,588.7
507.2481,15865.7
507.3652,2014.9
508.2213,101.8
508.2504,2977.3
508.3119,20.3
508.3358,1102.9
508.3472,154.6
508.3779,901.4
508.4297,168.8
508.8889,1555.5
508.9796,285.2
509.0047,2820.3
509.2639,9363.1
509.3807,539.4
509.6637,112.1
509.6763,109.9
509.7693,570.9
509.9323,310.6
509.9806,568
510.0589,130
510.2677,851.4
510.3526,97.3
510.6114,755.5
510.7214,759.8
510.8901,264.4
510.9822,400.5
511.0347,133.2
511.1244,31
511.1655,96.5
511.2701,306.9
511.4932,176.6
511.5193,133.3
511.7196,142.5
511.7634,20.3
511.9285,172.5
511.9698,434
512.1162,350.7
512.334,231.4
512.4809,126.7
512.4926,150.8
512.6592,304
512.7778,88.7
512.9083,12759.6
513.0304,389.1
513.1076,260.8
513.3559,1024.7
513.4111,242.1
513.4904,157
513.5114,624.6
513.6291,198.7
514.1067,589.6
514.38,129.4
514.4681,313.5
514.4879,140.5
514.8596,20.2
514.8895,316.8
514.9053,6122.8
514.9553,1379.9
514.994,313.7
515.021,1480.2
515.1509,462.6
515.3705,2105
515.6006,293.9
515.7237,442.1
515.7571,143.6
515.805,270.4
516.2286,173.1
516.2474,158.2
516.3062,12317
516.3257,519.4
516.6546,1175.9
516.6678,536.4
516.9023,1099
516.9198,1593.3
517.2219,257.6
517.288,18.1
517.3095,1746.8
517.3323,141.6
517.3863,3027.4
517.3999,601.2
517.4192,228.1
517.6822,126.6
517.7045,21.7
517.7671,631.6
517.9218,131.8
517.945,700.3
518.2364,1025.5
518.3218,681482.6
518.925,28010.1
519.0035,144.7
519.0613,830.5
519.0967,19.8
519.1741,727
519.3252,160170.5
519.3953,415.7
519.7302,191.4
519.9286,1986.7
520.0296,202.7
520.2,23.5
520.3289,14968.4
520.3398,96042.8
520.38,167.1
520.5635,182.3
520.9221,15980.8
520.9466,661.9
521.0013,119
521.0997,18
521.3302,801.4
521.3431,22057.4
521.4438,120.4
521.8072,545.5
521.8639,117.6
521.977,939.2
522.0489,889.6
522.2567,414.2
522.2764,530.3
522.3382,148
522.3555,71798
522.4278,21.4
522.5251,961.6
522.6156,103
522.9192,1129.5
522.9367,5637.9
522.9613,361.3
523.2348,189.3
523.3589,15344.5
523.6261,94.2
523.6575,320.1
523.6648,336.3
523.7311,430.3
523.7735,95.8
524.1048,1431.6
524.1181,702.6
524.1365,141.4
524.1632,700
524.1748,755
524.1866,132.4
524.2492,136
524.3711,132445.8
524.4567,481.4
524.6372,107.8
524.853,337.5
524.9322,374.5
525.0981,123.5
525.3392,19.4
525.3743,29038.7
525.4531,229.7
525.8138,322.6
526.1606,183.8
526.3291,1658.9
526.3661,165.8
526.6819,352.1
526.7809,697.9
526.9123,240.7
527.5151,827.5
527.8861,146.7
527.943,251.3
528.0665,361.9
528.2956,553.6
528.3446,359.6
528.838,125.7
528.8815,6210
528.9542,3723.8
529.261,771.2
529.6855,158.8
529.7195,317.2
529.7618,101.9
529.8014,157.5
529.9645,18.2
530.2008,191.1
530.3317,114.9
530.3577,1863.8
530.4776,240.3
530.6056,244.9
530.7531,250.8
530.8788,2377.1
530.9357,146.5
531.0026,328.3
531.22,1387.5
531.2477,676.4
531.4651,149.8
531.6478,157
531.7362,774
532.2521,1125.6
532.2804,1128.9
532.3379,7086.4
532.3743,828.9
532.4152,103.6
532.7177,390.1
532.8757,1624.9
532.9004,351.6
532.9661,552.2
533.0469,139.8
533.2109,655.1
533.2626,785.4
533.3407,1055.1
533.3829,993.3
533.581,18.3
533.6293,131.1
533.6414,104.1
533.8465,185.9
533.8932,368.9
534.1792,237.9
534.2958,179516.4
534.3164,1059.5
534.3899,276.4
534.4778,176.5
534.6671,92.4
534.6959,613.4
534.8155,164.6
534.899,16418.6
534.9402,533.2
535.0492,457
535.2991,41185.5
535.8771,167.6
535.9036,482.9
535.9873,129.9
536.0429,20.4
536.2947,7448
536.3434,676
536.3659,978.8
536.777,991.5
536.8961,11009.4
536.9078,421
536.9347,126.6
537.1405,745.3
537.2394,183.1
537.2972,853.3
537.3132,126.6
537.3426,1991.9
537.4229,510
537.7642,166.3
537.9008,615.5
537.9494,191.5
537.9879,134.8
538.0706,373.5
538.2083,196.1
538.2852,304.2
538.3545,416.9
538.467,417.2
538.6659,400.7
538.849,96.9
538.8934,885
538.911,2575.4
538.9334,391.2
538.9817,974.3
539.2494,245.3
539.5683,107.1
539.7534,1223.5
540.0244,232.7
540.1099,188.8
540.219,190.1
540.5297,216.3
540.5685,96.3
540.6349,343.1
540.8426,25.8
540.9885,440.6
541.0373,20.4
541.145,225.5
541.3061,415.9
541.3861,4550.3
541.6638,90.1
541.9243,208.5
542.3218,175096.5
542.491,964.1
542.7456,287.6
543.2502,350.3
543.3251,44450
543.4019,6293.7
543.4851,291.6
543.5253,384
543.6265,99.7
544.2577,99.6
544.3375,131778.5
544.4047,1264
544.7058,696.8
544.749,172.7
544.7756,656.1
544.8566,1202.5
544.8744,138.9
544.9479,1231.2
544.9729,697
545.072,215.6
545.3406,33174.3
545.417,2887.7
545.8376,244.6
546.3531,248540.6
546.8514,2035.5
546.9555,153.7
547.3565,58947.5
547.4043,349
547.6165,155.3
547.6292,229.5
547.6369,268.9
548.2441,20.6
548.3093,803.8
548.3598,5379.4
548.3851,291
548.5938,121.9
548.6054,19.4
548.79,439.6
548.888,106.6
549.0067,171.5
549.0745,586.7
549.3079,107.2
549.6006,148.8
550.1025,244.2
550.1455,431.4
550.2576,826
550.3547,124.3
550.4515,492.5
550.5236,204.3
550.703,673
550.8734,3454.3
551.5302,250.5
551.579,1047.6
552.0533,126.1
552.0782,619.5
552.1891,415.6
552.2374,1073
552.8702,2132.3
553.3248,371.2
553.3888,312.9
553.723,267.3
553.8708,20.5
554.1097,611.3
554.2034,605.3
554.3405,161.5
554.359,789
554.7014,531.6
554.7575,119.1
554.8251,628.8
554.8537,21.1
554.891,98.9
555.2367,390.7
555.3456,235.7
555.4186,850.7
555.5763,192.4
555.5985,117.6
555.7519,263.8
555.9788,146.4
556.3741,258.9
556.4768,135.2
557.041,288.4
557.3806,2064.7
557.427,95.3
558.0245,176.5
558.0721,118.3
558.2958,48596.7
558.3437,249.1
558.4537,241.9
558.4891,1257.3
559.1033,103.9
559.1446,887.5
559.2994,7963.1
559.3973,5420.5
559.4405,99.7
560.2951,2203.8
560.3115,34497.9
560.4013,1104.9
560.7123,557.3
560.787,20.5
560.9131,453.5
561.1155,19.5
561.3147,8319.6
561.4124,22349.4
562.1111,985.3
562.1819,525.6
562.3271,55565.5
562.3803,812.5
562.4162,5402.7
562.9664,267.8
562.9793,238.7
562.9951,255.3
563.0764,132.6
563.3308,10866
563.4006,722.3
563.428,15096.7
563.9819,236.3
564.1996,366.6
564.3256,1530.1
564.4324,1104.6
564.9096,402.4
565.0423,481.6
565.0565,609.5
565.2012,200.5
565.3462,711.4
565.6919,152.7
565.8379,662.6
566.2762,194.4
566.3216,26478.6
566.8926,147.6
566.9636,1133.5
566.9742,845
567.1041,170.7
567.1368,148.9
567.1548,298.8
567.3255,4821.4
567.6168,229.5
567.786,23.2
568.0254,523
568.2449,1410.3
568.3377,19516.6
568.5838,251.2
568.8205,209.8
569.019,107.8
569.3409,4966.1
569.4935,331.4
569.5056,23.8
570.2738,565.6
570.352,965.2
570.3694,155.9
570.5363,233.8
570.8665,4489.2
571.0331,332.4
571.072,720.5
571.0946,1286.5
571.3589,989.6
571.4499,854.3
571.6581,559.8
571.7529,169.1
571.991,167.4
572.016,435.9
572.6558,19
572.7539,475.7
572.8642,3698.3
572.9804,571.8
573.6347,683.3
573.6777,260.5
573.7538,131.6
573.9153,155.8
573.9875,99.5
574.3433,124.2
574.409,624.2
574.6135,498.6
574.7844,213.4
574.8332,579.6
574.8599,1390.9
575.3163,209.3
575.5032,14130.1
575.6676,999.1
575.8016,860.1
575.9448,360.4
575.961,270.2
576.0087,954.7
576.0361,143.8
576.2804,3901.1
576.4865,576.4
576.5067,1832.2
576.6474,180.4
576.703,386.5
576.8836,8858.3
576.9642,141.6
577.1258,126.9
577.2208,439.3
577.2837,552.2
577.3275,26.1
577.386,1507.5
578.2764,1219.5
578.5215,21.8
578.8808,6348.3
579.0506,245.7
579.1164,113.4
579.4417,244.3
579.4999,133.5
579.6689,21.4
579.8115,19.3
579.8262,203.7
579.8832,424.1
580.0243,738.1
580.1095,96.4
580.2096,473.6
580.4842,207.7
580.5152,113
580.8779,2058.3
580.8952,2334.3
581.1083,428.8
581.1502,766.9
581.4536,604.6
581.6085,133.8
581.9442,19
582.0403,209.5
582.0646,246.3
582.1046,228.1
582.1388,26.8
582.1857,180.6
582.202,1571.9
582.2558,1065.9
582.2955,6139.1
582.319,941.5
582.356,498.8
582.3761,140.7
582.415,108.5
582.4585,113.1
582.5826,345.6
582.8919,1376.7
582.9907,115.2
583.011,101.4
583.058,19.6
583.2558,3902.5
583.2987,1903.7
583.4951,224.7
583.5643,597.1
583.9185,786
583.9566,548.1
583.9751,145.7
584.3108,2615.7
584.9457,19.1
585.0159,27.2
585.0501,113.8
585.1675,165.3
585.2711,11951.7
585.4867,119.5
585.8291,20
585.9149,730.2
586.2734,3821.8
586.2874,106.9
586.3096,2440.2
586.4154,1159.9
586.5019,363.1
586.5363,189.8
586.5602,288
586.5821,129.7
586.6065,104
586.7408,657.3
586.8401,2181.5
586.9128,1522.9
587.3929,574
587.5685,107
587.6132,128.2
587.7451,396.3
587.7701,158.6
587.7962,977.9
587.8392,220.5
587.9007,891.5
587.9605,148.3
587.9743,241
588.1942,125.1
588.2383,397
588.362,520.8
588.51,109.2
588.6797,392.8
588.7848,195.9
588.8379,1583.6
588.8607,103
588.9108,463.1
588.9548,762.9
589.4466,101.4
590.0334,25.7
590.1041,617.5
590.2314,158
590.3217,3450.9
590.6237,144.7
590.6512,228.3
590.6563,268.3
590.6619,231.4
590.8352,101.5
590.8483,208.4
590.9757,347.9
591.1016,178.8
591.1329,430.3
591.2344,182.2
591.3049,1403
591.4605,3512.4
591.5103,111.8
591.7797,94.3
592.0464,682.7
592.1152,234.4
592.3059,244.6
592.3947,157.8
592.7063,19.1
592.7124,18.4
592.8157,548.7
592.8578,5459
592.9621,264.2
593.0492,750.7
593.4063,157.9
593.4265,151.3
593.6349,97.2
593.7637,19.7
593.9882,148.9
594.0327,144.8
594.0475,654.6
594.4968,140.8
594.6,121.2
594.7593,597.1
594.8548,6861.8
594.8776,945.1
594.971,22.8
595.0233,239.7
595.4051,147.7
595.4456,995.8
595.4704,380.3
595.5191,419.5
595.6154,362.3
595.8601,119.6
596.0085,121.6
596.159,101.7
596.3288,164.9
596.7423,531.4
596.8057,166.7
596.852,1714
596.869,1470.5
597.0339,152.8
597.155,186.2
597.4491,17377.7
597.4855,16980.1
597.5925,284.9
597.7042,236
597.8591,100.1
598.0873,125.2
598.2476,109.6
598.3607,20.9
598.4526,1399.9
598.4678,577.2
598.4886,2444.3
599.1629,921.1
599.4639,11719.4
599.5037,777.2
599.7776,127.8
599.898,93.5
599.918,344.8
600.4665,660.6
600.7204,220.2
600.8573,627.2
601.4259,1031.8
601.4689,559.3
601.4811,2345.3
601.518,217.7
601.5329,581.8
601.5744,271.8
601.6742,794.4
602.2971,801.3
602.5234,32.5
602.8141,624.7
602.8844,550.6
603.3281,17.4
603.4367,154.1
603.5353,1406.6
603.694,20.8
603.8318,101.1
604.31,713.3
604.6707,370.8
604.6906,305.2
604.8128,720.8
604.8833,1019.5
604.9565,374.3
605.5679,1075.6
605.5929,427
605.7696,140.2
605.8304,908.1
605.9238,563.8
606.011,634.3
606.5204,940.6
606.5281,935
606.7995,159.4
606.898,590.8
606.9234,101.4
606.971,171.1
607.1707,310.3
607.2045,489.1
607.254,1412.1
607.3155,366.4
607.3873,846.1
607.4543,91.4
607.4845,139.2
608.0439,964
608.3584,273.4
608.4904,320.8
608.5872,186.1
608.7811,624.4
608.8316,1955.1
609.0472,242.4
609.226,130.4
609.3441,22.4
609.3824,188.2
609.458,1010.1
609.4888,208.1
609.6206,218.2
609.6517,177.7
610.2606,408.6
610.3445,507.3
610.5965,118.3
610.8287,2495
610.8542,468.6
611.2229,498.5
611.4655,162.2
611.538,189.8
611.6437,19.2
611.9971,199.4
612.0459,340
612.0654,623.9
612.2691,147.2
612.3376,93
612.386,125.8
613.2046,674.3
613.3483,1966.3
613.4248,3465.3
613.444,4458
613.5928,712.9
613.7118,99.4
613.7371,466
613.792,121.7
613.8811,186
613.9001,651
614.1958,337.6
614.3454,659.5
614.5494,353.2
614.6592,885.5
614.6734,1634.7
615.111,173.5
615.4328,582.1
615.4598,21625.8
615.7158,522.2
615.8247,425.8
615.9691,144.5
616.0394,112
616.2269,113.4
616.4629,5693.9
616.5006,243.5
617.0934,173.1
617.3549,196.9
617.4074,135.4
617.4753,69938.6
617.6014,232.7
617.6678,20
617.7574,740.3
617.7976,206.3
617.8708,103.6
617.9142,315.7
617.9336,158.5
618.271,111.5
618.4787,21667.5
618.6664,131.4
619.4539,884.9
619.4911,84404
619.7298,596.4
620.0888,133.4
620.1858,288.8
620.2147,137.2
620.2397,103.2
620.2708,110.8
620.4498,121.4
620.4944,25091.8
620.5856,150.9
621.2194,618.5
621.4487,1721.3
621.4579,1142.2
621.4862,6317.4
621.5794,131.9
621.6033,21.2
621.9011,221.6
621.9617,788.9
622.2435,124.7
622.4433,287.5
622.469,247.7
622.5457,237.6
623.1359,13140.5
623.4724,558.4
623.5019,2210.8
623.5758,267.5
623.738,104.4
623.7801,950.5
624.139,709.9
624.172,94
624.242,121.8
624.4725,474.7
624.5108,98.6
624.6989,484.7
625.3749,109.1
625.4816,2020.6
625.5052,207.8
625.521,104.4
625.6135,103
626.4825,102.2
626.489,212.4
626.498,165.9
626.5214,263.4
626.7702,293
627.0361,125.2
627.1128,280.7
627.1259,94
627.2336,379.9
627.5362,2212.9
627.7248,161.5
627.9786,407.4
628.5016,117.6
628.5064,125.4
628.5145,111.3
628.8255,388.3
629.1528,27004.3
629.2468,142.3
629.6664,573.4
629.6835,469.5
630.0274,206.8
630.1565,3132.5
630.2177,816
630.292,1024.1
630.4126,19.4
630.4692,410.5
630.5534,167.4
630.5769,182.8
631.0276,103.4
631.044,149
631.4763,390
631.6606,135.5
631.7571,446.5
632.0573,238.8
632.6064,193.6
632.6967,726.1
633.021,439.2
633.0695,310.8
633.4489,8779.1
633.4715,2215.1
633.6531,244
633.7152,780.7
633.9038,124.4
633.9244,200.6
634.0439,416.9
634.1349,581.1
634.4522,982.5
634.8425,2245.7
635.1694,1188.7
635.201,1052.9
635.4652,10618.2
635.4854,3726.1
635.746,1026.9
635.7658,92.8
636.1167,774.6
636.469,2988.1
636.6753,505.5
636.7709,336.5
636.8032,388
636.839,3916.1
637.0113,317.5
637.4405,1155.1
637.5011,1032.9
637.825,20.4
638.0922,909.8
638.1132,141.6
638.4511,1823.7
638.5202,250.2
638.8366,1571.2
639.0032,134.4
639.4549,840.8
639.5606,18.4
639.6396,953.3
639.694,163.3
640.1705,174.4
640.3349,346.6
640.4193,132.1
640.4976,375.6
640.5043,393
640.5849,162.8
640.7321,19
641.4714,1032.9
641.4985,145.5
641.9105,159.2
642.3833,1035.6
642.9853,102.8
643.0794,141.9
643.285,98.5
643.5312,946.2
644.0275,102.7
644.1115,765.1
644.2221,167.9
644.2692,572.4
644.3324,117.4
644.5625,572.2
644.803,433.2
645.1176,11851.5
645.1473,443.5
645.1512,431.2
645.1688,123.8
645.3206,950.1
645.3485,183.4
645.5233,320.6
645.6125,162.7
645.8251,118.1
645.9822,398.8
646.0412,136.8
646.1211,636.8
646.2444,21.3
646.4592,113.6
646.597,18.2
646.8672,397.1
646.8839,464.4
647.0119,769
647.0943,280.7
647.1935,116.5
647.3023,467.8
647.5106,1082.2
647.7414,295.7
648.0027,565.5
648.1732,148.6
648.3834,1219.5
648.6153,135
649.0193,106.1
649.6542,19
649.8219,390.4
650.0185,129.9
650.1758,231.6
650.1883,186.7
650.439,3525.5
650.5727,636.6
650.816,1484.6
651.0126,560.5
651.0847,135.4
651.1347,36261.5
651.392,971.5
651.4583,355.4
651.5186,96.2
651.725,732.2
651.7963,512.8
652.0529,147
652.1385,6348.4
652.336,600
652.3813,932.9
652.4285,21.8
652.4581,163.5
652.7217,103.5
652.8145,1827.1
652.9524,815
653.1102,235.2
653.1357,1136.8
653.1647,617.3
653.2465,821.2
653.5104,1126.6
653.97,578.4
654.0193,293.9
654.0377,126.2
654.5099,882.8
654.6646,215.8
654.6985,413.4
654.7126,536.4
654.7261,839.2
654.8104,593
654.86,209.1
655.6586,96.5
655.8885,388.8
656.2074,23.3
656.2278,965.9
656.2472,720.9
656.4716,110.2
656.638,113.3
657.1555,16.9
657.4165,179.6
657.4626,227.4
657.477,1272.2
657.5154,718.3
658.1049,205.3
658.3659,563.5
658.4109,540
658.4391,983.4
658.5592,22.3
659.2246,272.7
659.5122,148.8
659.6316,120.8
660.0819,2170.2
660.1236,113.5
660.3749,998.8
660.4998,179
660.9551,107.9
661.0817,5100.8
661.448,799.8
661.4683,1585.3
661.5338,87.6
661.8813,24
662.0906,118.1
662.2565,23.8
662.4208,679
662.5297,244.4
662.6057,767.9
662.7033,126.9
662.9072,413.7
663.4511,129.2
663.6395,114.1
663.7257,535.6
663.8225,192.8
663.8615,779.4
664.3522,436.6
664.4673,2149
664.8347,908.1
664.8536,413
664.8801,557.8
665.0553,112.4
665.12,340.2
665.8098,950.3
665.9205,316.3
666.1142,187.2
666.132,1080.1
666.1789,577.3
666.3098,155.4
666.4842,10222.1
666.9741,318.9
667.0996,21787.4
667.2143,852.9
667.4217,100.4
667.4377,158.7
667.483,1454.6
667.6453,20.3
667.6984,122.2
667.8674,171.5
668.067,264.2
668.1037,1525
668.2394,185.2
668.563,579.2
668.7872,465.2
668.9799,157.2
669.0501,118.6
669.242,205.6
669.4944,3823.4
669.5766,19.5
669.7884,271.9
669.9388,279.2
670.2858,680
670.3527,291.4
670.4931,19.7
670.5424,511.9
670.7337,107.4
670.7862,570.1
670.8121,99.8
670.8608,218.4
671.1567,671.8
671.828,309.2
671.9888,276.4
672.0529,129.7
672.0988,144.4
672.165,416.6
672.4204,7191.5
672.573,1099.6
673.1165,53738.2
673.2451,376.8
673.427,781.6
673.5287,1167.2
673.8227,118.8
674.1202,10993.9
674.2456,94.8
674.5899,586.8
674.7334,366.6
674.94,177.2
675.0032,109.9
675.0527,109.6
675.0927,417.5
675.1232,317.8
675.5438,26211.8
675.9625,617.9
676.047,4560.6
676.4139,655
676.5473,8103.2
676.6906,805
676.7667,321.1
676.8071,586.8
677.0503,252.5
677.674,702.6
678.0575,286.4
678.0618,281.7
678.2678,221.8
678.4665,573.5
678.4837,217.3
678.9617,642.9
679.1826,684
679.4644,23.9
679.6093,894.6
679.7507,349.9
680.0852,727.9
680.2935,95.2
680.4816,126.7
680.5918,682.3
681.0106,540.6
681.6169,222.2
681.9488,26.2
682.0644,10229.4
682.2904,163.2
682.4594,1229.9
682.6844,164.5
682.97,230.4
683.0082,95.8
683.0642,4441.3
683.1965,206.2
683.2559,780.2
683.4497,2424.1
683.7374,721
683.9833,515
684.0432,283.5
684.4038,114.2
684.45,1123.1
685.0722,416.2
685.4365,12111.7
685.4908,203.2
685.6489,146.5
685.6931,1047
685.7506,295.5
685.7692,759.5
686.4385,3630.9
686.9997,948.7
687.3948,307.6
687.407,1224.3
687.4968,178.3
687.5533,909.7
687.7072,518.8
687.8437,17.8
688.0551,333.2
688.1637,579.8
688.416,614.6
688.7707,19.4
688.7948,201.7
688.8388,116.6
688.9392,18.9
689.0811,19057.7
689.09,16635.8
689.2894,783.7
689.3797,236.8
689.5595,7100.4
689.6127,114.4
689.9056,20
690.0873,1341.4
690.563,1023.4
690.7318,207.6
691.0799,620.4
691.5204,391.5
691.7472,134.1
691.76,1069.1
691.9148,448.9
691.9526,200.5
692.1934,152.6
692.3681,501.3
692.4423,91.6
692.5595,603.7
692.7895,351.6
692.9866,572.1
693.0436,297.5
693.2101,413.3
693.2319,386.3
693.3661,534.8
693.3915,404.5
693.553,278.2
693.7623,105.5
694.2788,95.8
694.3423,786.6
694.5387,226.5
694.5849,918.2
694.7813,1049.3
694.7987,708.6
695.0987,38163.4
695.4353,90.4
695.4628,20
695.5103,5372.6
695.819,1134.7
695.9192,132.4
695.9745,131.3
696.0387,1094.9
696.1023,5033
696.3068,183.9
696.3457,158
696.5136,763.6
696.7276,379.7
696.7683,559.7
697.1065,162.9
697.25,506
697.2748,94.4
697.4251,208
697.5257,47472.9
697.5966,428.5
697.7541,360
697.9737,102.7
698.0284,2677.3
698.2188,126
698.5293,15349.3
698.7459,259.5
699.0381,145.6
699.2097,18.4
699.4185,991.9
699.4367,381.7
700.0551,282.2
700.1956,192.7
700.3261,566.6
700.3431,21.4
700.4538,1428.5
700.4882,1244.3
700.5852,438
700.6392,808.5
700.7621,149.5
701.0428,107
701.0602,108
701.4107,566.5
701.5595,58379.1
701.6697,288.9
701.9615,653.6
702.3424,2830.9
702.4115,348.2
702.5627,19335.3
702.7806,192
703.0525,154.4
703.2667,105
703.4294,98.3
703.5753,134752.7
703.7108,180.1
703.8856,537.5
703.964,381.3
704.0004,547.2
704.0461,7737.1
704.4079,145.2
704.4476,7135.5
704.5196,458.6
704.5785,58457.1
704.6756,382
704.8254,729.7
704.8884,122.5
705.0572,4111.1
705.2305,154.5
705.2543,19.9
705.2935,831.4
705.4515,2176.3
705.5817,4906.1
705.6136,252.8
705.8048,270.2
706.1743,132.8
706.2583,187.9
706.4291,111.9
706.5395,2611.3
706.6788,771.2
706.9779,1177.2
707.1686,333.6
707.4561,1155.6
707.8718,653.7
708.0176,136.3
708.1591,89.7
708.3325,839.6
708.4997,152.4
708.9236,889.2
709.2155,22.5
709.3064,227.7
709.8248,713.1
710.2271,369.6
710.3198,18
710.5317,484.1
710.5527,468.3
710.6818,255.5
710.6859,260.4
710.7668,98.4
710.9889,127.5
711.0639,10857.7
711.0738,15631.8
711.5419,13410.8
711.5734,975
711.6296,742
711.96,18.9
712.0669,399.5
712.3291,413.9
712.5443,3998.7
712.8738,566.7
712.9033,219.9
713.0151,236.3
713.0487,106.7
713.2866,241.3
713.4072,89.8
713.4997,3817.6
714.0022,170.2
714.0191,773.2
714.2443,191.7
714.5213,267.1
714.6078,344.2
714.8123,225.5
714.8508,1295.1
715.5237,207.5
715.573,175.4
716.5253,670.8
716.6034,109.8
716.6838,295.9
717.0807,19421.3
718.0838,1708.5
718.5747,1428.6
718.7985,336.6
719.3955,538.3
719.4339,188.1
719.4644,2090.9
719.5778,220.2
719.7465,390.9
719.8159,396.4
720.0212,1741.3
720.2498,609.4
720.5532,148.9
720.589,444.6
720.6745,713.1
720.9292,572.6
720.97,122.8
721.0144,1003
721.3611,315.6
721.4207,601.8
721.478,80891.9
721.7491,279
721.764,270.2
722.0162,873.8
722.035,105.9
722.1504,1004.6
722.3131,619
722.376,543.2
722.4061,134.7
722.4815,34063.6
722.6635,259.8
722.8475,176.7
722.8919,94.8
723.2643,135.7
723.3954,144.1
723.4937,3009.1
723.5416,66720.8
723.6435,315.3
724.0469,197.7
724.4288,285.6
724.455,1196
724.4958,904.4
724.5136,897.9
724.5449,26316.2
724.7531,401.1
725.3422,92.4
725.4679,172.8
725.5573,144426.9
726.0005,199.3
726.0283,4733.9
726.5605,61375.1
726.8824,118.2
727.0339,2345.3
727.5625,7200.6
727.5925,698.3
727.7492,297.6
727.8384,186.6
727.9166,88
728.3564,93.5
728.3885,762.1
728.4494,1125.4
728.5216,3394.7
728.5899,230
728.8015,1244.9
728.9189,19.2
729.0113,148.2
729.4714,558.7
729.5444,158.6
729.5913,12393.8
730.2438,117.4
730.32,264.2
730.5384,16943.4
730.5939,2400.7
730.7055,19.6
730.8066,388.8
731.2498,106.3
731.4397,421.2
731.4917,278.2
731.5426,3229.5
731.6068,8061.4
731.6446,192.6
732.2901,121.9
732.4794,1075
732.5545,52287.7
732.6092,974.8
733.0198,163
733.0443,9405.1
733.0552,7725.3
733.207,453.6
733.4292,91.7
733.4859,701.4
733.558,20788
733.9425,97.6
734.0233,178.3
734.1123,415.5
734.5224,361.3
734.5712,8175.7
734.7314,549.8
734.8492,562.9
735.0504,158.2
735.1324,428.5
735.2366,995.2
735.3377,808.5
735.5242,126.7
735.5742,1378
735.6088,291.5
735.9848,269.4
736.2085,381.7
736.3093,887.4
736.5636,615.1
736.6993,380.5
736.74,348.4
737.0649,123.1
737.3719,613
737.4519,18419.8
737.7567,155.6
738.0182,92.5
738.4545,3847.9
738.5975,144
738.8416,116.3
738.9704,488.7
739.0627,12306.2
739.1199,800
739.2236,185.6
739.3475,146
739.4675,1170.7
739.5153,8819.2
739.7055,116.8
739.7918,420.1
739.8153,718.2
739.9062,852
740.2642,18.3
740.2958,125.7
740.5187,2275.6
740.5571,192.2
740.7627,133.5
741.5315,20432.7
741.5951,281.9
741.7539,143.1
741.7996,139.8
741.9033,200
742.004,1086.2
742.1296,22.4
742.4394,87.7
742.4485,103.5
742.4586,121.4
742.4683,116.6
742.5351,8138
742.5748,18944.4
742.6373,203.9
743,91.5
743.4753,584.3
743.5767,5285.9
743.9023,529
743.9953,110.6
744.2849,207.3
744.4509,1243.6
744.5542,8027.2
744.5909,27304.3
744.681,153.3
744.868,20.4
745.1872,424.8
745.478,27774.2
745.5587,1335.6
745.5943,9588
745.615,195.7
746.482,11822.4
746.5709,1710.9
746.6064,5884
746.8545,1443.4
747.0117,335.6
747.1629,404.4
747.2879,396.8
747.495,12879.5
747.5725,185
747.5904,181.3
747.6098,939.8
747.8502,153.5
747.9027,739.5
748.0104,2170.4
748.0453,155.5
748.141,601.3
748.1812,106.6
748.1988,423.1
748.4955,1482.9
749.0155,1999.6
749.2453,115.9
749.3927,287.3
749.5094,2842.7
749.6272,656.2
749.9095,117.5
749.9697,230.6
750.4036,337.1
750.512,1058.8
751.0156,329.8
751.1317,341.6
751.1835,173.1
751.276,548.5
751.3222,134.7
751.5725,9166.1
752.0279,1010.5
752.087,268.2
752.1885,255.2
752.2495,157.2
752.4022,697.8
752.5205,19146.8
752.5747,2637.6
752.7384,214.2
753.0822,1138.4
753.1834,390.9
753.2412,231.6
753.5248,4737.9
753.5894,3604.4
753.6308,492.6
753.8384,368.8
753.872,623.5
754.0319,468.1
754.5365,52120.2
754.591,829.8
754.6922,601
754.702,663
754.8083,101.1
755.0263,3379.7
755.0381,3299.6
755.1117,209.5
755.144,1155.7
755.5399,17848.6
755.6686,883.9
756.0322,252.6
756.2054,103.4
756.2562,126.1
756.554,51927.5
756.6964,793.1
756.7939,167.6
757.0097,185.2
757.3024,164.4
757.5577,23631
757.6226,2594
757.7033,318.8
758.0289,315.5
758.2242,401.3
758.57,1496619.1
758.6902,1148.9
758.7402,1087.9
758.8854,201.6
759.2391,317.1
759.5003,183.8
759.5733,649396.2
759.637,1535.1
759.8035,576.9
760.2283,664.6
760.4613,1234.2
760.5746,89130.5
760.5874,258546.3
760.6419,1205.5
760.6899,942.7
760.7461,308.3
761.0446,3930.5
761.1658,383.7
761.3792,164.1
761.4527,2633.2
761.4892,413.8
761.5895,138373.7
761.6929,165.3
761.8553,450.2
762.1094,136.1
762.3803,215.3
762.457,545.2
762.5924,31701.5
762.7733,619.4
763.0172,310.6
763.0665,567.1
763.1163,132.5
763.4672,2182.3
763.5916,320.3
763.7936,138.5
763.868,111.9
763.9835,614.8
764.4515,176
764.5573,9730.6
764.6044,358.4
764.8466,778.9
764.977,1034.2
765.0143,175.2
765.1504,112.2
765.3848,690.4
765.4179,146.2
765.4703,706.2
765.5595,3711
765.842,153.6
766.0507,19.8
766.4415,736.4
766.488,703.7
766.5365,9277.6
766.574,54293.2
766.6844,572.9
767.0154,215.3
767.0722,218.5
767.2789,837.9
767.3878,744
767.4152,901.6
767.5047,108.1
767.5775,21185.2
767.6889,94
767.9861,16.8
768.1398,113.8
768.2018,1491
768.4953,1419.2
768.5522,4883.4
768.5908,74519.9
768.6262,174.9
769.4781,2602
769.5583,593.6
769.594,36944
769.9656,21.9
770.0755,487.2
770.1998,157.2
770.2864,206.1
770.5104,6911.9
770.5709,1027
770.6075,20750.3
770.9915,5368.2
771.4789,148.8
771.5157,1116.3
771.5622,1031.6
771.6099,10668.5
771.6853,96
771.7682,99.1
771.9648,706.8
771.9958,696.5
772.2542,440.7
772.5857,14058.4
772.6226,1894.1
772.9557,307.8
773.0649,106
773.3288,20.5
773.4823,19.7
773.5114,568.1
773.5911,1708.8
773.6275,205
773.6564,172.8
773.7093,150.5
773.8765,160.8
774.3342,394.5
774.5005,22.6
774.739,90
774.9842,187.7
775.2937,116.9
776.0776,979.5
776.5209,1578.1
776.9786,273.3
777.0096,2628.3
777.4167,19.5
777.4325,825.6
778.0115,496.9
778.0453,2697.6
778.342,116.1
778.3517,145.5
778.3607,143.9
778.5364,43997.9
778.9826,741.8
779.4557,163.9
779.5396,15022.4
779.6077,345.6
779.7468,234.9
779.8789,459
779.9322,286
780.1201,328.7
780.552,1151512.5
780.6677,992.4
780.9408,954.8
781.5554,505059
782.1802,1553.9
782.4418,2360.4
782.5699,683731.7
782.6035,362.3
782.7101,186.9
783.0272,3714.9
783.3602,230.9
783.522,184.9
783.5731,329792.1
783.8432,769.3
783.8564,704.5
784.0752,177.9
784.3117,213.2
784.5863,416066.4
784.6683,191.3
784.7422,244.2
785.3243,170.8
785.5092,122.5
785.5892,207520.6
785.6538,8401.3
785.7206,246.1
785.9102,261
785.9411,152.4
786.2238,316.8
786.457,271.7
786.6019,418859.7
786.6563,2924.2
786.8303,1450.7
787.5582,23.9
787.6048,199847.5
787.646,129.4
787.6698,854.3
788.424,360.3
788.5568,22015.9
788.6057,38045.6
788.6206,12755.2
788.672,129.1
788.7417,318.1
789.0938,1060.9
789.2948,101.4
789.4243,846.4
789.5588,5930.1
789.6221,6845.7
789.688,749.3
789.8252,125.7
790.0443,997.4
790.5728,51535.8
790.6227,576.8
790.8846,510.5
791.0099,19.2
791.0565,251.7
791.1315,696.3
791.3322,21.6
791.5761,20622.3
791.6597,426.2
792.3718,18.9
792.5509,1781.3
792.59,33818.2
792.8445,186.7
793.1128,379.9
793.377,146.6
793.3958,371.3
793.5937,12082.5
793.807,94.8
794.0021,113.4
794.511,3637.3
794.5685,6777.2
794.6065,68094.4
794.8035,97.8
795.0081,420.3
795.5724,1920.9
795.6099,34788.3
795.8034,746.9
795.8244,19.8
795.9815,122.4
796.3975,740.1
796.5259,233930.5
796.5854,4333.2
796.6234,18429.5
796.9926,819.6
797.1526,99.9
797.4511,20.5
797.5294,103435.6
797.5824,141.6
797.626,7063.9
797.8116,302.9
797.9007,127.5
797.9589,813.1
798.0429,532.6
798.2895,668.2
798.5436,29657.5
798.6021,1288.8
799.3892,190.7
799.5452,12819.5
799.6697,1177
799.8746,139.5
800.483,255
800.6737,348.1
801.0454,215.8
801.3025,395.4
801.3863,22.1
801.7008,482.7
801.9016,599
802.0399,261.9
802.1617,166.6
802.4228,19
802.4603,941.3
802.4825,167.3
802.5363,21822.8
802.5846,887.7
802.6123,158
802.6826,160.5
802.7409,156.8
802.9322,821.8
803.2332,374.5
803.5393,8885.8
803.8246,207
804.2466,156.2
804.552,408088.8
804.5984,1833.8
804.6421,99.1
804.9695,196.7
805.3977,19.9
805.5554,187649.7
805.8031,183.5
806.1299,24.3
806.5058,189.6
806.5688,406145.8
806.8284,115.8
806.987,246.1
807.0593,209.2
807.1687,95.7
807.2323,982.1
807.4741,144.8
807.5718,195361.1
807.6363,524.6
807.6896,323.5
807.8531,658.9
808.1314,102.3
808.1525,161.3
808.5847,302343.8
808.6437,123.5
808.7396,151.3
808.7687,441.1
808.9572,120.9
809.5875,146956.2
809.653,153.3
809.791,522.3
810.1973,1610.2
810.3709,521.8
810.41,110.8
810.602,164326.5
810.68,99.3
810.8611,142.2
811.1379,559.4
811.3299,792.6
811.6049,84506.6
811.6693,9892.4
811.6955,20
811.7954,107.2
812.6185,58556
812.673,4729.9
812.882,147.2
812.9023,134.4
813.0516,17.4
813.1658,195.1
813.3354,895.5
813.4379,286.6
813.5161,114.4
813.6209,31707.9
813.6578,143.5
813.6863,9566.5
813.7831,277.6
813.8614,159.1
813.9682,179.2
814.0629,659.2
814.2216,208.3
814.4359,273.3
814.4583,90.8
814.5734,10573.4
814.6216,1586.8
814.6601,644.6
814.6887,2932.9
814.8294,217.5
815.5775,2477.4
816.5886,41549.4
816.7273,115.9
817.0053,231.1
817.5629,342.4
817.5919,16626.7
818.1617,710.5
818.3017,164.7
818.4267,177.7
818.4966,19.4
818.5569,201.2
818.6063,14965.3
818.7508,671.7
818.79,109
818.8433,106.7
818.8646,131.3
819.4453,19.3
819.5705,871.5
819.608,2218.8
819.8651,160.8
819.988,151.7
820.0454,466.2
820.526,84454.6
820.623,2118
820.6787,361.9
821.0641,19.7
821.5291,36965.4
821.6253,857
822.4571,153.8
822.4819,164.3
822.5424,55420.8
822.6383,1411.3
822.8843,94.1
822.955,101.3
822.9763,552.9
822.9905,628
823.0147,446.4
823.0464,110.9
823.1878,146.2
823.301,1032.7
823.3776,159.6
823.5452,23226.5
823.638,136.1
823.719,2077.3
824.2644,337.7
824.5581,43128.7
824.9128,106.1
825.1586,596.9
825.3301,895.6
825.4308,137.7
825.5057,666
825.5608,21965.6
825.6584,150.6
825.7919,100.1
826.2613,661.2
826.646,196.4
827.1082,143.3
827.676,525
827.9429,968.7
828.1462,18.6
828.552,97882.8
828.9435,155.9
829.5552,49215.6
829.7514,953
829.9456,1697.4
830.2015,1323
830.2659,841.1
830.4143,189
830.5051,228.2
830.5687,53901.1
830.805,730.5
831.0056,1443
831.0907,176.8
831.293,1004.3
831.5712,22645.7
831.6176,270.1
832.3201,772
832.5839,95450.3
833.1815,141.2
833.431,163.9
833.5872,44224.3
833.6496,1173.6
833.8141,606.8
834.4791,102.9
834.5418,188.9
834.6011,52954.1
834.6341,411.2
834.969,118.3
835.0844,646.3
835.1269,23.8
835.3521,864.1
835.604,23178.5
835.6666,661
835.7001,723.8
835.7495,282.6
835.9463,350.7
836.4333,1235.4
836.4666,677.4
836.5922,989.1
836.6188,3026.4
836.6626,751.4
836.9133,329.9
837.5157,160.3
837.5446,1808
837.6209,193.1
837.6393,278.1
837.6755,19.3
837.7119,159.3
837.9215,94.1
838.0988,174.8
838.1226,171
838.3056,184.1
838.3559,890.7
838.4541,827.7
838.5095,763.1
838.631,182
838.6733,237.4
839.0177,106.9
839.3506,110.1
839.9045,893.9
840.1656,98.1
840.2528,1082
840.5083,865.8
840.7394,413.7
840.809,134.9
840.914,1006.9
840.9604,103.6
840.9829,405.9
841.0299,651.8
841.1948,177.6
841.316,236.8
841.431,670
841.4673,359.4
841.5883,259.7
841.6283,546.3
841.754,730.2
842.6035,835.5
843.3701,367.3
844.5259,15628.2
844.9925,149.3
845.4413,399.8
845.5282,3816.2
845.7464,681.6
845.8366,161.4
846.0895,649
846.2355,200.2
846.2873,2476.8
846.3332,628.4
846.5425,6740.7
846.6041,672
847.4694,23.7
847.659,144.5
847.7577,136.8
848.0461,286.8
848.4401,1156.6
848.5568,13429.2
848.839,97.2
848.8734,983.8
848.9736,562
849.5591,4208
849.5828,20.4
849.7236,348
850.0841,560.9
850.142,1028.2
850.3356,220.6
850.38,645.9
850.4276,1415.6
850.573,970.5
850.6682,125.2
850.7819,106.2
851.2063,2654.5
851.2467,141.7
851.3184,239
851.4364,183
851.5882,1816
851.7437,995.9
852.0433,599.5
852.0802,143.4
852.1116,380.5
852.4047,102.8
853.2469,469.4
853.2896,301.3
853.6708,234.5
853.9509,746.6
854.3438,151.7
854.4844,141.4
854.5673,2054
854.8817,962.5
855.0065,677.2
855.0491,348.3
855.1385,806.3
855.354,109.6
855.4067,2147.9
855.5743,1118.2
855.6591,378.8
855.9476,179.3
856.1615,89.3
856.3364,584.3
856.422,842.3
856.4717,715.3
856.5462,275.5
856.5834,11744.8
856.7635,928.6
856.9247,19.6
857.0607,285.4
857.588,2960
857.9129,704.9
858.0661,167.7
858.23,373.6
858.345,208.9
858.4777,91.1
858.5376,602.1
858.6082,1683.9
858.7067,302.1
858.8263,464.7
859.5632,128.4
859.6034,129
859.7958,974
859.8066,1053.3
859.8172,828.5
859.9516,680.2
860.2228,170.8
860.2627,551.3
860.3767,120.8
860.8012,860.8
861.0045,105.3
861.1777,419.3
861.543,252.9
861.8192,285.5
862.0582,633.2
862.6831,350.8
862.9375,303.2
863.1094,173.3
863.2747,181.4
863.4421,334
863.9542,498.9
864.2148,21.3
864.2665,674.5
864.7168,694.6
865.0555,744.8
865.1124,632.1
865.2428,2464.1
865.4595,424.4
865.6057,109.1
865.7181,136.3
866.6023,526.7
866.9509,898.1
867.0733,366.7
867.0871,726
867.1608,509.4
867.2133,240.6
867.4929,120.4
867.7563,124.5
867.7995,614.6
867.9673,1100.1
868.0514,407.4
868.1406,449.8
868.6096,404.2
868.932,20.7
869.0833,234.4
869.1654,880.1
869.2239,172.6
869.3512,157.3
869.5127,145.2
869.5321,155
869.5509,375.9
869.5766,19.7
869.6335,2632
869.6775,2512
869.6982,3536.7
869.7504,3383
869.8057,1807.2
869.8426,6116.6
869.8576,4708.4
869.8958,5356.5
869.9524,2039
869.9656,1907.7
870.0058,819.1
870.0494,97.7
870.0992,1428.1
870.1727,130.7
870.2457,196.7
870.5431,21.3
871.2161,2982.6
871.4693,1017.3
871.5328,272.2
871.8196,300.3
872.1287,721.2
872.4926,1165
872.7717,703.3
873.075,838.4
873.1707,237.9
873.2552,164.8
873.3263,199.3
873.4225,1410.3
873.4941,149.9
873.6362,588.2
873.9507,123.2
874.0684,4907.8
874.2799,1013.6
875.6713,1758.4
875.7881,129.4
876.0027,159.2
876.1594,873.2
876.3855,951.9
877.0938,221.7
877.1734,739.2
877.3638,795.6
877.5018,173.4
878.1623,142.9
878.5267,209.2
878.7029,154.4
878.8842,155.5
878.9431,532.3
878.9857,242.3
879.0563,935.8
879.102,182.9
879.1908,214.7
879.5905,919.3
879.6872,1465.5
880.0232,925.8
880.3077,383.5
880.6189,20.3
880.7767,263.8
881.3113,22.8
881.455,196.6
881.7663,802.1
881.8398,1352.7
882.8292,600.5
883.3532,1233.3
883.5343,1247.6
883.6982,835.9
883.9572,146
884.0817,916.7
884.4807,453.6
885.122,355.8
885.7483,728.5
885.7969,576.5
885.8876,256.6
885.9295,370.8
886.3301,150.7
887.0736,320.4
887.1425,361.1
887.3919,129.3
887.7298,1001.6
888.131,957.2
888.2063,767.4
888.5177,327.7
888.5748,231.2
889.0322,477.7
889.3896,468.4
889.7185,808.1
889.8923,709.9
890.0901,138.3
890.2144,171.1
890.2487,194.1
890.9977,379.5
891.2493,700.8
891.3613,1609.7
891.7929,18.5
891.838,106.9
892.1025,588.8
892.4261,266.2
892.6174,2149.7
892.9229,685.8
892.9784,342.8
893.0818,129.3
893.1611,213.7
893.2951,17.2
893.4829,110.3
893.7971,344.6
893.868,92.9
894.0556,1189.6
894.129,200.1
894.6503,92.6
894.6989,108.7
894.8367,22.7
894.9786,965.7
895.6253,997.2
895.6797,345.6
895.8273,130.4
896.0358,148.3
896.4212,777.1
896.493,222
896.6242,1313
896.7516,19.7
896.9279,275.8
897.2422,1017.6
897.5374,864.1
897.5998,1158.5
897.9089,215.4
897.9774,161
898.2709,1059.4
899.0162,148.9
899.3122,134.4
899.4663,627.4
900.2437,231.5
900.5459,634.4
900.862,986.5
901.3252,713.6
901.4096,430.5
901.5463,1538.3
901.8267,766.7
902.1504,675.7
903.3603,899.7
903.3886,1592.8
903.9317,578
904.4108,342
904.7648,201.6
904.9246,104.5
905.385,1168
905.5673,310.2
906.1122,883.2
907.3417,434.8
907.4998,782.1
907.9494,630
908.0179,413.9
908.0773,2830.3
908.4095,266.6
908.5697,354.5
908.811,538.2
908.897,759.9
909.2255,274.7
909.4437,619.2
909.6482,3310.3
909.8751,205.4
910.2193,20.6
910.5975,250.1
910.9276,92.3
911.0515,212.5
911.3504,134.4
911.6502,189.5
911.8784,993.2
912.2596,117.5
913.0726,260.9
913.2377,21.3
913.914,964.4
914.3173,21.5
914.7063,1325.8
914.9904,182.1
915.2267,21.7
915.3397,679.2
916.6578,132.5
916.9469,602.6
917.023,811.6
917.6548,756.2
918.4072,722.8
918.4486,21.5
918.575,264
918.6452,801.2
918.8597,267.8
918.931,209.7
919.1091,773.3
919.2068,159.7
919.2985,421.6
919.3514,190.7
919.3914,4408
919.5231,1219.2
919.62,528.1
919.7522,411.9
919.902,400.8
920.1367,673.5
920.1741,293.6
920.8536,424.6
920.9017,194.7
921.1868,1859.6
921.3195,807.8
921.4558,368.4
921.6343,298.4
922.5195,210
922.9626,378.1
923.0793,253.1
923.2729,358.1
923.4258,624.8
923.4726,287.8
923.7987,112.1
923.8654,1488.6
923.9609,212.7
924.8815,1141.8
925.0284,17.5
925.4426,101.6
925.607,267.5
925.6377,838.8
925.8831,634.4
926.1394,1392.8
926.2675,458.5
927.0503,554.8
927.0589,552.2
927.6466,1559.1
927.9843,137
928.1545,1156.5
928.4521,1793
928.5451,1298
928.8924,217.7
929.5252,353
930.1229,343.9
930.5573,685.1
930.7105,183.9
930.9355,131.8
931.1828,142.4
931.6491,321.1
931.7016,177.9
931.8609,697.1
931.9221,550.3
932.139,208.6
932.3388,853.3
932.3899,1830.7
932.5039,991.1
932.8041,229.8
932.8807,915.1
932.9825,20.5
933.1038,667.5
933.2532,391.6
933.731,158.9
934.6403,331.9
934.6981,185.4
935.5592,160.6
935.6485,271.4
935.6922,448.8
935.7977,87.9
935.955,19.8
936.0992,743.3
936.1659,117.1
936.9574,1824.1
937.0073,158.9
937.2602,1315.5
937.4767,19.2
937.5539,230.2
937.5615,227.7
937.573,137.8
937.6109,389.3
938.0587,121.6
938.143,1384.4
938.2415,295.7
938.8537,408
939.0942,2007.3
939.2642,423.8
939.2955,1353.6
939.7149,1990
940.3934,148.3
940.7544,179.6
941.5819,772.8
942.1716,803
942.3548,1422
943.0601,158.8
943.6629,100.6
943.74,343.6
943.8049,630.1
944.2323,1110.5
944.2599,197.4
944.3868,1276.1
944.5191,19
944.5844,19.5
945.3046,178.4
945.3525,204.2
945.5513,285.5
945.6481,264
946.3731,550.8
946.7091,218.2
947.2471,156.9
947.7712,183.4
948.3614,378.7
948.8363,106.1
948.9443,922.4
949.251,133.8
949.6606,542.9
950.2402,459.6
950.2624,129.1
950.3105,373.3
950.3615,1441.8
950.5514,170.5
950.6,331.2
951.0238,133.7
951.3129,109.9
951.6839,20.5
951.8129,351.5
952.1978,1511.7
952.3711,20.7
952.6682,813.3
952.6789,736.2
952.7542,131.2
953.3285,420.5
953.6825,858.9
953.9127,450.7
954.1225,415.9
954.1513,241.1
954.5843,119
954.6515,130.9
954.7593,329.8
954.8509,120.4
954.9229,873.5
954.9567,20.7
955.1919,1233.4
955.376,387.9
955.8043,153.4
956.8123,2587.8
956.901,165.2
956.9308,205.3
957.433,173.7
957.4535,94.9
957.7856,903.6
957.8465,460.6
958.0141,284.6
958.041,673.8
958.2491,921.1
958.3412,136.4
959.234,205.9
959.2647,147.4
959.3746,825.9
959.7252,158.9
959.9184,108.2
960.4761,1408.4
960.5543,157.9
961.054,255.7
961.6872,598.9
962.0761,1914.9
962.136,1104.2
962.3611,1076.5
962.6206,733.1
962.7504,199.2
964.1556,98.6
964.4427,242.8
964.5091,127.8
964.8613,2468.8
964.95,151.3
965.0014,198.2
965.2117,119.6
965.3146,1061.2
965.3577,191
965.7077,128.1
965.7634,194.3
966.0882,196.3
966.4675,20
967.3066,959.8
967.4337,1168.7
967.4834,247
967.6239,274.8
967.9373,98.1
968.4919,153.5
968.7465,189
968.8708,133.8
968.9722,399.2
969.5171,463.5
969.7515,1975.6
969.8231,1375.2
970.0737,129.4
970.2794,19.2
970.3714,1256.7
970.4802,711.1
970.5519,452.6
970.7156,286.6
970.8631,793.1
970.9408,1032.4
970.9924,786.5
971.553,279.3
972.8664,883.6
973.0006,2191
973.2715,1072.4
973.7337,461.1
973.7746,240
973.8728,150.2
974.0167,369
974.6736,121.3
974.8244,1224.3
975.0014,363.5
975.1477,1156.1
975.2728,2193.3
976.0202,272
976.0509,213.2
976.3389,1142.4
976.5343,238.9
976.6546,500.7
977.2055,117.4
977.2525,2365.6
977.5511,867.1
977.6592,572.1
978.374,1234.2
978.6145,1482.8
978.6995,592.8
978.7907,98.3
979.2064,436.5
979.2506,145.7
979.3909,681.5
979.6375,107.8
979.8481,145.7
979.8907,663.6
979.925,361.1
980.027,735.6
980.0542,1059.5
980.155,156.9
980.2257,1194.2
980.2605,440.9
980.3374,20.9
980.9971,1541.5
981.2439,538.7
981.6593,1935.1
982.2754,103.6
982.5033,660.9
982.8516,497.4
983.1935,23.2
983.561,1106.3
983.8219,293.2
983.9378,914.9
984.3579,634.6
984.48,608.4
984.5183,196.2
984.5429,217.4
984.8563,207.7
984.9823,947.4
985.0096,612
985.1899,627.4
985.6225,1754.3
985.7404,1922.8
985.8976,206.7
986.0234,514.7
986.394,108.8
986.5005,191.4
986.9208,856.8
986.9823,828.2
987.0673,20.6
987.1182,237.6
987.7374,1132.6
987.9515,155.6
988.1094,631.2
988.3742,735.9
988.4104,108.4
989.2989,2588.1
989.5957,143.3
989.786,161.9
989.958,174.8
990.2017,673.4
990.4588,709.1
990.6979,795.9
991.4909,812.2
992.1466,411.2
992.4143,1546.3
992.5778,980.5
993.1274,1169.3
993.8899,204.1
994.148,1203.7
994.4295,2297.4
995.0763,454.9
995.297,294.1
995.7407,861.5
996.136,173.4
996.164,592.2
996.4049,2065
996.6512,951.4
997.0433,394.3
997.2911,1286.4
997.4903,94.4
997.7725,2588.8
997.8029,1427.2
998.0183,190.7
999.0034,21.1
999.1278,261.7
999.1859,1263
999.4458,862.9
999.5053,208.2
999.7021,1089.6
