SPECTRUM - MS,
409.RAW,
FTMS + p ESI Full ms [50.00-1000.00],
Scan #: 1-40,
RT: 0.01-1.97,
AV: 40,
m/z,Intensity

50.0008,412.9
50.0015,371.4
50.0128,19.9
50.0131,18.6
50.0164,349
50.0393,654.4
50.0661,150
50.1074,71.5
50.1096,269.5
50.1104,69
50.1108,89.4
50.1164,172.3
50.1196,643.4
50.1309,697.1
50.1373,385.5
50.14,72.2
50.1526,139.5
50.1537,306.4
50.1605,141.9
50.1931,149.7
50.1974,607
50.2071,70.4
50.2369,139.4
50.2531,143.2
50.2535,267.8
50.2635,858.6
50.2699,102
50.2762,88.2
50.2901,78.9
50.3236,164.4
50.3336,99.3
50.3371,20
50.3521,554
50.3543,319.5
50.3577,317.9
50.3776,251.7
50.3858,541.5
50.3861,585.4
50.395,91.1
50.4087,68.5
50.4126,142.3
50.4182,92.1
50.4396,68.8
50.4476,540.7
50.4673,106.4
50.4871,296.8
50.4969,77.6
50.5036,173.7
50.5181,83.7
50.5455,679
50.5501,107.2
50.5517,470.2
50.5523,67.9
50.5625,17.3
50.5701,732.4
50.5789,64.1
50.5798,214.9
50.6122,68
50.6161,676
50.6307,527.1
50.6317,80.4
50.6403,139.4
50.6555,358.6
50.6783,147.4
50.6802,19.6
50.686,158.4
50.7346,116.9
50.7369,278
50.7754,154.3
50.7833,136.1
50.7848,246.5
50.7896,473.9
50.7906,83.3
50.8,81.6
50.8105,549.5
50.8323,365.8
50.8791,300.2
50.8836,403.1
50.8977,372.2
50.91,139.6
50.926,598.5
50.9264,171.3
50.9481,566.9
50.9504,256.4
50.955,505.8
50.9564,143.6
50.9572,134.7
50.9608,75.3
50.9704,65.3
50.9712,104.1
50.975,194
50.9784,285.1
51,85.2
51.0005,277.4
51.0139,18.3
51.0167,314.6
51.022,17.6
51.0352,67.7
51.037,70.5
51.0446,110.4
51.0485,163.3
51.0588,93.4
51.0592,457
51.062,66.2
51.1238,378
51.143,16.8
51.1473,245.2
51.1505,16.5
51.1605,537.3
51.17,114.4
51.1756,636.6
51.2139,129.4
51.2216,790.9
51.2623,16.7
51.2676,401.6
51.269,73.8
51.27,239.3
51.2886,149
51.2929,275.3
51.2939,171.4
51.3154,204.9
51.3161,132.1
51.3426,15.8
51.3458,79.8
51.3584,121.6
51.3698,286.9
51.3715,90
51.3806,279.2
51.3892,714.8
51.3923,83.2
51.3973,140.5
51.4066,104
51.4214,277.8
51.4227,308
51.4445,279
51.4523,67.2
51.4584,158.7
51.4692,230.2
51.4746,165.1
51.4922,67.8
51.5076,81.2
51.5092,124.2
51.5204,551.8
51.5239,742.5
51.5549,65.8
51.5677,106.2
51.5715,284
51.5751,67.6
51.5756,229.7
51.5771,385.4
51.5908,100.5
51.5953,74.7
51.5989,143.6
51.6129,17.2
51.6238,115.7
51.632,71.6
51.6335,74
51.6365,442.7
51.6417,481.3
51.644,182.4
51.661,168.5
51.6864,317.7
51.6895,14
51.698,190.9
51.699,105.7
51.7299,278.3
51.7389,74.3
51.7453,156.1
51.7511,18.1
51.7718,364.2
51.7883,718.5
51.794,66.1
51.8579,77.8
51.869,78.2
51.8746,174.9
51.8833,295.2
51.9054,74.7
51.9087,314.7
51.9182,146.9
51.9225,319.8
51.9447,397.4
51.9542,85.2
51.9672,101.3
51.9879,80.1
52.0023,121.6
52.0034,371.2
52.0037,439.6
52.0235,165.2
52.0349,16.8
52.0594,359.7
52.0643,493.1
52.0798,241.1
52.0859,78.6
52.0958,396.3
52.0994,21.4
52.1042,72.5
52.1133,86.2
52.1246,63.1
52.14,302.4
52.1426,173.6
52.2069,130.3
52.2237,16.6
52.2256,280.4
52.2319,607.3
52.2377,71.4
52.269,18.3
52.2695,109.7
52.2703,154.3
52.2893,259
52.2927,573
52.298,69.8
52.3049,584.6
52.3191,342.4
52.3227,140.3
52.3286,562.8
52.3318,283
52.3324,17.3
52.3499,514
52.3576,359.9
52.3588,73.5
52.3616,119.3
52.3704,424.5
52.372,97.7
52.3769,166.2
52.3848,245.1
52.3928,87.7
52.3933,137.6
52.3941,572.1
52.4056,66.7
52.41,15.4
52.4328,16.2
52.4341,586.6
52.4412,272.7
52.4416,153.3
52.4812,419.6
52.4859,202.3
52.5183,335.7
52.5452,527.5
52.5541,75.2
52.5718,249.1
52.5831,222
52.5879,64.1
52.5884,81.4
52.5929,116.9
52.5961,120.9
52.5984,15.5
52.6078,100.9
52.6189,673.8
52.6221,302.6
52.6231,133.4
52.6685,20.5
52.6845,137.3
52.6892,270.3
52.7169,210.3
52.7204,75.7
52.7209,105.5
52.7223,265
52.7284,67.2
52.7453,286.4
52.7509,73.5
52.7738,152.5
52.785,74.8
52.7885,620
52.7979,402.4
52.7992,136.2
52.8031,178.1
52.8123,32.9
52.8131,43.8
52.8145,740.3
52.8149,1056.8
52.8154,581.7
52.8158,1359.8
52.8165,928.5
52.8168,1530.7
52.8173,1081.4
52.8182,2261.6
52.8185,2118.8
52.8191,2424.5
52.8199,362.3
52.8203,297.4
52.8208,290.9
52.8349,628.6
52.8564,173.6
52.8682,274.7
52.8727,113.8
52.8775,188.5
52.8844,133.4
52.8973,75.7
52.9018,386.8
52.904,97.2
52.9082,16.4
52.9095,15.6
52.9127,180.7
52.9135,282.6
52.9429,445.5
52.9447,174.9
52.9517,116.9
52.9528,63.8
52.9532,146.6
52.9636,451.2
52.9644,302.1
52.9682,729.6
52.974,171.7
52.9746,17.2
52.9824,281.6
52.9835,203.7
52.9843,462.6
52.9913,91
53.0024,199.6
53.0345,84.1
53.0354,97.5
53.05,258.9
53.0503,252.9
53.0712,243.7
53.0751,373
53.0776,65.2
53.1001,625.7
53.1221,191.1
53.1267,348
53.1357,351.4
53.1384,252.4
53.1403,126.9
53.1433,17.5
53.1482,448.6
53.1583,650.8
53.1644,144.5
53.1706,79.4
53.1794,60.5
53.1916,263.6
53.2055,118.1
53.2063,261.8
53.2103,81.5
53.2348,148.3
53.2369,395.6
53.2383,180.1
53.252,184.9
53.2873,522.8
53.3081,662.4
53.3174,15.1
53.3241,283.2
53.3263,544.3
53.3282,528.6
53.3412,85.5
53.3417,70.3
53.3447,18.4
53.3494,139.1
53.3636,276.7
53.3729,92.6
53.388,93.1
53.3944,17
53.3948,93.7
53.4105,127.3
53.4145,90.4
53.4251,67.3
53.4299,148.1
53.4301,238.8
53.4333,395.2
53.4561,143.7
53.4582,87.1
53.4689,380.4
53.4713,242.9
53.481,335.4
53.5003,159.2
53.5097,16.4
53.5183,90.4
53.5244,490.8
53.5271,555.6
53.5478,109.4
53.5869,64.1
53.5891,321.4
53.6031,355.7
53.6038,72.6
53.6357,189.3
53.6422,268.1
53.6608,396.2
53.6712,311.5
53.6876,232.6
53.6947,258
53.6959,492.5
53.6968,108.6
53.7409,274
53.7724,248
53.7777,112.7
53.7793,199.7
53.7935,203.9
53.8077,627.3
53.8178,508
53.8187,98.3
53.8392,179.8
53.8396,16.9
53.858,68.9
53.8585,16.5
53.8599,676
53.8779,101.9
53.8856,98.7
53.889,17.8
53.8956,85.7
53.9032,380
53.9113,518.1
53.9174,107.9
53.933,460
53.9467,16.4
53.9563,67.1
53.9856,96
53.9912,285.3
53.993,102
54.0158,185.5
54.0186,567.3
54.0208,74.1
54.0238,75.1
54.0311,277.9
54.0437,450.8
54.0486,679.1
54.0547,559.5
54.0766,16.5
54.0828,138.8
54.087,275.7
54.1156,411.9
54.1224,141.3
54.1377,63.8
54.1392,269.7
54.1484,296.7
54.15,274.1
54.1584,19
54.1635,276.1
54.1792,270
54.1861,481.8
54.1893,525.3
54.2052,70
54.207,96.6
54.2259,196.4
54.2303,111.4
54.2346,134.7
54.2368,386.9
54.2395,76.1
54.2659,644.7
54.2757,200.5
54.2879,508.2
54.3156,114.3
54.3222,207.4
54.3364,258.1
54.3502,160.1
54.367,569.1
54.3733,497.5
54.3797,622.1
54.3838,119.9
54.3924,118.2
54.4044,74.6
54.4105,91.1
54.4212,116.6
54.4405,166.6
54.441,110.4
54.4614,74.1
54.4658,81.4
54.4689,151.7
54.4698,81.2
54.4768,117.2
54.4807,454.1
54.487,104.9
54.4954,82.5
54.5388,283.1
54.544,337.7
54.5549,73
54.571,65.7
54.5713,15.5
54.5908,76.7
54.5973,72
54.6006,627
54.6018,94.8
54.6107,113.1
54.6123,686.7
54.6306,17.3
54.6328,682.8
54.6515,77.5
54.6579,493.1
54.669,292.3
54.6714,20.8
54.674,336.7
54.7282,17.5
54.7289,70.3
54.7318,217.2
54.7389,284.9
54.7426,231.9
54.745,107.8
54.7709,425
54.7991,92.3
54.8027,86.1
54.8129,87.3
54.8143,79.7
54.8199,319.9
54.8299,401.1
54.8648,89.2
54.8833,445.5
54.9186,420
54.9193,428.2
54.9272,615.5
54.9364,70.3
54.9432,61.5
54.9539,125.3
54.9962,109.6
55.0138,72.9
55.0146,71.9
55.0169,98.1
55.0324,303.2
55.0331,145.8
55.045,346.7
55.0701,82.7
55.0812,100.2
55.0837,529.5
55.0966,99.2
55.1361,370.5
55.1381,16.8
55.184,76.3
55.1998,269.3
55.2015,378.5
55.2049,227.6
55.2074,89.1
55.2239,136.2
55.2273,100.2
55.2295,118.3
55.2467,221.5
55.2507,343.9
55.2581,205.2
55.2629,21.1
55.2764,184.1
55.2922,73.4
55.2981,116.3
55.2996,134.9
55.314,517.8
55.3196,157.6
55.3254,154.7
55.3319,171.3
55.3359,217.8
55.3437,118
55.3486,391
55.3732,291.2
55.3747,71.4
55.3787,103.6
55.4018,179.6
55.4073,155
55.4328,185
55.4431,96.1
55.445,152.9
55.4468,277
55.4637,222.9
55.4816,407.1
55.4935,65.5
55.5053,102.8
55.53,135.9
55.5354,142
55.5373,131.8
55.5383,101.7
55.5409,433.4
55.5491,84.3
55.5606,419.3
55.5714,20.1
55.5759,20.1
55.5929,165.8
55.6061,210.2
55.6089,396.8
55.6121,156.7
55.6168,355.6
55.6293,655
55.6302,702.1
55.6324,440.3
55.6483,16.4
55.6534,75.6
55.6699,576.5
55.6786,233.6
55.6856,555.4
55.7005,660.1
55.7135,337.4
55.7229,18.7
55.7275,107
55.7448,296.8
55.7714,90.7
55.7922,277.6
55.7998,171.5
55.8272,325.9
55.8282,603
55.8451,109.9
55.8687,103.2
55.8824,773.6
55.8983,167.6
55.9047,258.8
55.9126,130.1
55.9294,312.1
55.9467,17.7
55.9827,173.7
56.0029,171.1
56.0049,74.2
56.0061,63.6
56.0154,392.6
56.041,686.6
56.0464,200.9
56.0483,168.5
56.0491,81.1
56.0555,15.4
56.0559,146.4
56.0628,115.6
56.1228,165
56.123,162.6
56.1422,645.6
56.1469,100.9
56.1502,213.9
56.1515,98.7
56.1576,81.2
56.1591,69.5
56.1737,262.6
56.1899,74.4
56.1902,607.2
56.1988,119
56.2012,657.7
56.2052,531.1
56.2191,258
56.2227,679.1
56.264,415.8
56.265,772.1
56.2654,267
56.2683,218
56.3111,92.6
56.3239,138.9
56.3372,67.2
56.3558,314.7
56.3562,185.5
56.3575,765.4
56.3581,78.3
56.3703,95.1
56.394,65.5
56.3953,406.2
56.4062,638.9
56.4493,148.4
56.4516,436.2
56.4586,91.8
56.4679,172.5
56.4697,81.1
56.4712,155.6
56.4942,205.4
56.521,250.1
56.5365,76.8
56.538,286.5
56.5413,97.2
56.5515,62.5
56.5825,417.8
56.5876,498.9
56.5938,263.4
56.5996,212.9
56.6004,61.3
56.6058,85
56.6209,231
56.6478,132.6
56.6681,587.1
56.6847,105.2
56.7082,15.8
56.7089,359.8
56.7148,170.2
56.719,369.3
56.7468,513.9
56.7649,76.8
56.7719,151.9
56.7927,83.9
56.795,550
56.8061,417.6
56.8178,235
56.8212,176.6
56.8329,376.9
56.8603,686.1
56.8677,190.4
56.8753,368
56.8786,422.2
56.8843,230.6
56.9006,310.8
56.9027,587
56.9121,593.3
56.9248,145.8
56.9305,70.9
56.9711,16.5
56.9767,213.2
56.9811,255.8
56.9944,109.2
57.016,268.5
57.0268,754.9
57.0412,219.8
57.087,150.6
57.0885,298.5
57.1162,82.6
57.1181,321.6
57.1191,621.6
57.127,122.1
57.1304,16.4
57.1459,456.3
57.15,193.3
57.1617,149.1
57.2013,92.7
57.2367,159
57.2576,151.6
57.2591,113.3
57.2804,94.5
57.2831,81.4
57.31,16.3
57.311,77.6
57.3258,151.2
57.3267,24.8
57.3321,334.7
57.3378,545.6
57.3398,106.7
57.3682,255.7
57.3744,141.9
57.3762,141.8
57.3809,15.3
57.3884,664.1
57.4425,297.7
57.4587,508.8
57.4604,99.1
57.4614,71.8
57.4631,567.9
57.4691,195.3
57.4778,515
57.5035,199.2
57.5312,140
57.533,314.5
57.5373,552.8
57.5419,75.3
57.5505,423.6
57.5621,157.1
57.5664,109.2
57.5688,188.3
57.594,561.6
57.6062,190.9
57.6137,255
57.6242,17.7
57.6274,89.3
57.6302,17.7
57.6452,395.4
57.658,83.5
57.6735,16.7
57.6825,591.9
57.6942,76.1
57.6968,601.9
57.6976,99
57.7008,598.7
57.7093,288.1
57.7147,380.6
57.7184,607
57.7323,17
57.7506,105.1
57.7608,67.4
57.7703,637.1
57.7867,17.7
57.7928,217.7
57.7933,273.6
57.8087,92.5
57.8358,153.6
57.8391,20.1
57.8406,154.1
57.8422,105.7
57.8716,16.7
57.8775,693.9
57.8794,79
57.8841,277.9
57.8868,85.1
57.9015,252.8
57.914,751.7
57.9194,251.1
57.9238,338.1
57.9252,432.7
57.9256,171.8
57.941,330.5
57.9429,16.4
57.944,278.8
57.9564,17.8
57.9585,150.8
57.9606,492.4
57.9673,287.9
57.9719,118.2
57.9752,74.2
57.9845,128.3
57.993,489.9
58.0082,90.4
58.0165,142
58.0256,67.7
58.0296,415.4
58.0351,109.6
58.0455,206.3
58.0633,96.3
58.077,261.7
58.0817,17.1
58.0884,134.5
58.0897,123.9
58.0951,107.7
58.097,324.1
58.1264,142.8
58.1321,17.7
58.1642,721.9
58.1702,450.7
58.1811,602.5
58.182,16.3
58.1862,90.4
58.1908,115.7
58.2048,592.6
58.2065,214.4
58.2374,969.2
58.2475,155.9
58.2477,162.5
58.2484,64
58.2503,87.3
58.2705,479.2
58.2748,495.8
58.2894,187.9
58.2919,159.1
58.2978,179.1
58.3209,242.2
58.3239,344.2
58.3256,179
58.3263,143.4
58.3477,258.8
58.3568,188
58.3573,136
58.3605,89.6
58.3717,18.4
58.3755,76.1
58.3782,75.2
58.386,431.8
58.3974,202.8
58.4043,569.8
58.4143,84.3
58.4522,305.4
58.4694,508.7
58.4739,130.5
58.4995,72.4
58.5076,284.3
58.5139,170.5
58.5249,137.2
58.5382,209.8
58.5425,543.2
58.5516,321.2
58.5616,17.3
58.5644,87.5
58.5712,19.2
58.5717,69.9
58.5801,198
58.5812,475.4
58.5843,139.8
58.5958,277.7
58.6207,75
58.6216,93.9
58.6403,617.3
58.6411,83.4
58.6478,197.7
58.649,102.5
58.657,518.1
58.6811,289.4
58.6992,167.1
58.7006,16.5
58.705,103.3
58.7118,113.8
58.7151,78.1
58.7196,74.4
58.7402,103.6
58.7894,18.5
58.7908,326.2
58.7926,61.7
58.7953,92.9
58.8031,231.9
58.8267,264.5
58.8336,305.8
58.8352,89.6
58.859,144.7
58.9045,280.9
58.9139,79.6
58.9169,751.8
58.9377,558.5
58.9551,158.2
58.9603,74.4
58.9655,678.9
58.988,262.3
58.9888,99.8
58.9985,69.1
59.036,147.8
59.044,142.6
59.0483,280.9
59.0517,578.6
59.0522,212.3
59.0659,81.1
59.0757,156
59.0907,96.5
59.0997,703.5
59.1517,340.1
59.1794,139.3
59.181,321.4
59.1955,68.7
59.1973,266.2
59.2198,276.4
59.2228,208.3
59.2229,220.8
59.2231,134
59.2519,383.3
59.2529,154
59.2588,152.5
59.2656,64.7
59.2901,107.5
59.3127,214.5
59.321,228.4
59.3256,103.6
59.3277,17.6
59.3315,282
59.3438,523.9
59.3526,98.4
59.3571,257.1
59.3725,84.6
59.3767,113.1
59.3776,352
59.4304,554.2
59.431,79.3
59.4458,181.9
59.4493,20.7
59.4549,823
59.4739,197.8
59.4768,79.3
59.4834,280.3
59.4875,125.5
59.5008,197.5
59.5056,365.5
59.5197,329.4
59.5225,573.9
59.5586,151.5
59.5731,160.6
59.5867,16.6
59.5941,704.5
59.6007,146.7
59.6414,104.6
59.6476,96
59.6537,290.9
59.6556,416.6
59.6712,694.1
59.6895,550.4
59.6927,529.6
59.6998,144.2
59.7163,144.9
59.7265,276.3
59.7589,466.7
59.7624,422.1
59.777,78.1
59.8053,86.4
59.8141,100.5
59.8216,177.6
59.827,296.4
59.8394,352
59.8395,333.5
59.8691,90.6
59.8879,108.8
59.8928,114.6
59.9347,185.5
59.9386,636.5
59.9418,110
59.9478,318.5
59.9616,16.7
59.9623,537.7
59.9779,150.5
59.9841,345.8
59.9851,380.5
60.03,167.9
60.035,341.8
60.0576,208.8
60.0593,215.9
60.0609,256.6
60.065,133.9
60.0727,283.8
60.0827,17.4
60.1106,220.1
60.1176,600.6
60.1348,77.7
60.1436,429.9
60.1496,15.1
60.1651,74.9
60.1923,18.7
60.2137,363.1
60.2161,198.5
60.2371,93.5
60.2395,100.2
60.247,273.5
60.2658,149.2
60.2706,350.6
60.2714,187
60.2733,399.5
60.2797,63.1
60.3245,20.8
60.3313,715.4
60.333,232.7
60.3363,794
60.3536,273.3
60.3551,366.4
60.3653,73.2
60.3744,130.2
60.4028,81.5
60.4088,601.7
60.4239,18
60.4346,246.2
60.4941,104.5
60.5142,132.4
60.5224,15.2
60.5232,17.6
60.5251,85.5
60.536,101
60.5379,16.8
60.5588,250
60.5932,156.7
60.6058,120
60.6165,105.6
60.6247,88.7
60.6693,70.4
60.6764,113.6
60.6829,96.7
60.6982,138.6
60.6985,83.6
60.7136,225
60.7211,203.3
60.7231,108.5
60.7233,136.8
60.7235,108.2
60.724,66.2
60.7286,474.9
60.729,139.6
60.7535,18.3
60.7576,244.3
60.7746,275.8
60.7761,15.7
60.7767,106
60.7805,71.1
60.7961,219.6
60.7974,92.6
60.8161,285.7
60.8536,89.7
60.8609,395.4
60.8628,312.5
60.8733,316.2
60.8811,75.1
60.8822,135.1
60.8876,79.2
60.8911,16.5
60.9025,692.5
60.9049,162.8
60.9157,229.7
60.9224,76.4
60.9311,144.3
60.952,91.5
60.9582,433
60.9778,139.5
60.9953,19.9
60.9978,154.3
61.0236,160.2
61.0419,79.2
61.0453,195.5
61.0485,310.8
61.0552,73.8
61.0587,284.5
61.0594,98.4
61.0653,506.6
61.0772,77.5
61.0846,70.8
61.0877,172.2
61.1128,207
61.1234,123.8
61.1307,121.7
61.1362,225
61.1397,288.2
61.1478,122.7
61.168,367.4
61.1719,18.6
61.2073,516.6
61.2607,405.8
61.2682,79.6
61.2723,76.4
61.3092,411.4
61.3148,88
61.3208,266.4
61.343,331.4
61.3447,585.2
61.3924,215.9
61.3969,207.6
61.4116,226.2
61.4126,115.1
61.4157,302.4
61.4322,325.6
61.449,118.8
61.4861,150.3
61.5045,138.1
61.5145,552
61.5416,78.6
61.5462,509.9
61.551,296
61.5913,423.2
61.595,245
61.5996,154.9
61.6153,129.3
61.6306,80.2
61.6323,76.5
61.6396,562.8
61.6407,402.5
61.6495,167.9
61.6506,25.6
61.6749,146
61.7005,75
61.7054,173.8
61.7173,453.3
61.7227,157.8
61.7261,458.8
61.7295,838.2
61.7548,179.7
61.7814,283.2
61.7819,214.2
61.7856,782.2
61.7905,532.2
61.8009,553.8
61.8178,126.3
61.8204,234.1
61.825,16.8
61.8604,114
61.8656,340
61.8662,16.2
61.8921,97.5
61.9384,77.9
61.9457,178.1
61.949,308.8
61.9602,282
61.9714,436.6
62.0015,637
62.0509,242.7
62.0752,95.4
62.0765,115.5
62.0948,71.9
62.0977,402.2
62.1252,303.3
62.1473,434.1
62.1551,191.6
62.1608,129.9
62.1628,601.7
62.1645,78.1
62.1685,294.7
62.1885,94.6
62.2037,129.8
62.2058,286.2
62.2136,359.5
62.2156,88.7
62.2356,78.2
62.2597,587.3
62.2741,333.5
62.2814,435.1
62.3001,90.4
62.3265,463.4
62.3297,154.7
62.3929,80.1
62.394,63.8
62.3959,597
62.4106,299.7
62.4191,104.2
62.4234,462.6
62.4399,528.6
62.4443,197.5
62.4803,80.6
62.4995,83.4
62.5075,451.2
62.5098,158.1
62.5219,15.8
62.5249,200.8
62.5338,131.6
62.5468,557.5
62.5491,118.4
62.5503,15.8
62.5522,71.2
62.5528,339.6
62.5714,425.1
62.6044,91.7
62.6267,266.9
62.6371,192.8
62.6422,133
62.6457,156.4
62.6825,179.3
62.6944,262.9
62.6964,195.3
62.6978,17.3
62.7117,87.4
62.7393,200.3
62.7435,109.1
62.7634,110.3
62.7651,201.2
62.7672,487.4
62.7778,68
62.7824,521.1
62.8227,164.9
62.8288,241.4
62.8353,268.6
62.8356,296.9
62.8361,316.3
62.873,289.6
62.9054,275.9
62.9138,15.8
62.9323,300.8
62.9399,433.6
62.9476,417.4
62.9485,76.6
62.9733,836.6
62.9782,78.1
62.994,401
63.0126,300.5
63.0236,384.7
63.0244,188
63.0277,636.4
63.0413,161.7
63.0884,456.1
63.1022,444.8
63.1222,301.8
63.1373,18.5
63.1418,102.1
63.1443,18
63.1549,137.1
63.1597,78.9
63.1621,752.5
63.178,354.2
63.1954,216.8
63.2086,168.9
63.2114,179.9
63.2159,98
63.2367,140
63.2372,115.9
63.2396,630.2
63.2431,122.6
63.2906,83
63.2927,71.2
63.3033,79.2
63.3083,75.4
63.3098,77
63.3118,90.3
63.3223,378.6
63.3276,122.9
63.3304,119.3
63.3327,556.8
63.3401,436.5
63.3417,79.7
63.3428,275.9
63.3687,190.2
63.3862,223.2
63.4158,117.9
63.4245,342.3
63.426,194.6
63.4279,481.4
63.4287,391.2
63.4371,313.9
63.4515,75.2
63.4615,632
63.4787,395.2
63.4847,18.2
63.4946,300.9
63.4965,67.8
63.5143,164.1
63.5198,397.8
63.5216,372.1
63.5273,538.6
63.5311,481.3
63.5317,91.5
63.5403,466.8
63.5626,206.1
63.5845,718.9
63.5856,16.7
63.593,514.8
63.617,83.6
63.6189,18.4
63.6322,732.6
63.6391,109.3
63.6686,360
63.6691,701.1
63.695,627.5
63.6991,293.7
63.7,76.6
63.7137,115.4
63.7262,20.4
63.7317,342.3
63.7345,200.3
63.7449,172.3
63.7463,158.1
63.756,173.5
63.7581,148
63.7608,417.2
63.7654,168.1
63.7797,95.1
63.7839,547.1
63.7954,76.7
63.7983,137.4
63.805,85.8
63.8122,309.8
63.8293,118.3
63.8401,95.1
63.8762,414.9
63.9009,107.8
63.906,90.5
63.9159,211.6
63.9536,311.9
63.9622,454.1
63.9627,83.5
63.9637,140.7
63.9881,580.5
64.0263,230.5
64.0299,93.9
64.0328,555
64.0528,91.9
64.0616,72.5
64.0876,107.3
64.0905,485.2
64.0949,116.4
64.1027,618.6
64.1193,105.8
64.1373,105.2
64.1544,268.7
64.1579,133.3
64.1582,142.4
64.1794,140.8
64.184,437.5
64.2142,168
64.2206,18
64.2264,117.3
64.238,209.6
64.2435,266.6
64.3238,20.5
64.3348,273.6
64.3766,724.1
64.3775,78.4
64.4059,75
64.457,557.2
64.4595,258.6
64.4646,723.6
64.4783,67.7
64.4835,79.8
64.4969,176
64.5009,275.9
64.5243,379.4
64.5439,392.8
64.5498,281.8
64.5526,20.6
64.5557,281.9
64.5605,181.1
64.5861,324.9
64.5933,139.8
64.5966,301.9
64.6267,660.9
64.6576,257.4
64.6743,379.5
64.6746,303.6
64.6808,95
64.6871,177.7
64.6928,192.9
64.6957,82
64.7055,88.3
64.7181,119.6
64.7202,734.6
64.7208,393
64.7251,276.1
64.7625,16.1
64.7629,149.7
64.797,86.7
64.804,185.7
64.8296,614
64.8385,256.6
64.844,702.5
64.8458,97.2
64.847,233
64.8506,896.9
64.8513,112.9
64.8554,718.8
64.8662,635.2
64.8847,85.8
64.9216,64.5
64.9301,512.7
64.9347,150.3
64.9588,231.7
64.9957,134
65.0058,178.3
65.01,100.3
65.0261,530.3
65.0281,206
65.0295,74.9
65.0348,629.2
65.0611,742
65.067,616.2
65.0713,276.9
65.0817,177.8
65.1365,455.1
65.1518,255.4
65.1552,165.7
65.1605,140.9
65.162,99.4
65.1836,104.1
65.1854,106.6
65.2087,618.6
65.2161,15.7
65.2202,101.5
65.2458,168.5
65.2573,68.6
65.2707,73
65.2733,138.6
65.2898,88.2
65.2911,193.3
65.337,416.1
65.3416,692.7
65.374,108.7
65.3776,166.6
65.3873,589.1
65.4135,64.4
65.4152,306.5
65.4201,122
65.4354,217.6
65.455,137.2
65.4754,114.7
65.4812,179.2
65.4861,365.5
65.4931,86.5
65.4953,589.8
65.5085,366.2
65.5121,229.1
65.5225,79.8
65.5444,69.1
65.5488,17.2
65.569,83.2
65.5792,205.6
65.5939,192.7
65.6139,105
65.6181,101.6
65.6384,378.3
65.6418,724.5
65.6869,436.4
65.6973,129.3
65.7274,20.3
65.7326,574.4
65.739,100
65.7486,69.5
65.7493,178.2
65.7897,74.5
65.796,213.2
65.8011,72.7
65.8103,225
65.8129,562.6
65.8169,15.8
65.8708,299
65.872,16.8
65.8822,269.7
65.8932,288.1
65.8967,64.1
65.8993,203.1
65.9117,88.4
65.9353,239.1
65.947,304.9
65.9887,110.5
65.9924,74.8
65.9952,120.8
66.0331,21.5
66.0407,503.4
66.0427,69.4
66.0493,96.7
66.0655,68.7
66.0748,18.4
66.076,77.5
66.0765,186.1
66.08,184.7
66.113,182.1
66.1184,81.6
66.1214,213.4
66.1329,101.6
66.1391,503.7
66.1403,19.1
66.1481,175.1
66.1545,207.2
66.1561,73.2
66.1573,157.2
66.1581,16.4
66.1692,115.6
66.1792,124.7
66.1953,68.1
66.2232,68.3
66.2373,352.1
66.2486,546
66.2506,312.5
66.2992,151.1
66.319,393.5
66.336,67.1
66.3416,189.7
66.3438,252.4
66.3444,202.1
66.3517,296.1
66.3715,129.1
66.3909,132.6
66.3919,221.4
66.407,303.6
66.4282,745.9
66.4323,20.8
66.4333,151.1
66.4688,169.5
66.4869,632.3
66.513,86.9
66.5312,112.8
66.5331,620.3
66.5351,229.1
66.543,501.3
66.5665,19.1
66.5724,16.2
66.5753,71.8
66.5765,75.6
66.5889,674.7
66.6069,233.6
66.6256,127.2
66.6641,70.6
66.6708,187.6
66.7016,139
66.7162,154.2
66.7404,92.7
66.7613,171.3
66.7641,316.9
66.7664,69.4
66.7883,18.7
66.8161,15.8
66.8229,577.4
66.8269,365
66.831,108.9
66.85,75.3
66.8511,112.7
66.8581,585.4
66.863,19
66.8706,104.6
66.8737,222.4
66.876,217
66.9091,424.6
66.9122,149.5
66.9142,314.2
66.9309,84.9
66.9324,262.7
66.9379,330.1
66.9524,147.1
67.0248,185.9
67.0369,59.8
67.0433,342.1
67.0475,89.2
67.0539,52.4
67.0614,17.5
67.065,77.6
67.0773,80.8
67.0821,17.2
67.0843,664
67.1007,63.9
67.105,75.2
67.119,267.5
67.1229,190.1
67.1301,79.4
67.1412,98.8
67.1478,16.6
67.1585,308.4
67.1594,243.7
67.1665,282.3
67.1713,387.1
67.1814,125.9
67.1828,670.4
67.1848,117.1
67.187,73.1
67.2264,172.1
67.2377,563.5
67.2391,16.1
67.2542,167.5
67.2701,151.6
67.2736,559.8
67.2762,648
67.2774,69
67.293,367.6
67.2949,76.3
67.3148,76.9
67.3375,469.4
67.351,105.5
67.3572,524.6
67.3597,18.8
67.3796,17.8
67.3828,690
67.3921,192.1
67.3929,521.3
67.396,351.5
67.4002,79.3
67.4051,178.9
67.4098,17
67.4143,18.1
67.4299,146.2
67.4353,108.3
67.4601,158.2
67.4716,277
67.4808,23.4
67.4894,20.9
67.4912,19.8
67.503,21
67.5216,461.1
67.5379,119.5
67.5447,85.9
67.5527,109.8
67.5587,116.7
67.5924,101.7
67.5982,226.9
67.614,89.6
67.6196,72.3
67.625,367.1
67.6349,374.5
67.6391,280
67.649,74.1
67.664,309.3
67.6699,334.8
67.6862,101.6
67.6918,83.3
67.6995,18.6
67.7096,134
67.7144,425.2
67.7239,93.3
67.7506,414.2
67.7556,188.6
67.7835,395.6
67.7959,82.9
67.8054,221
67.8242,65.4
67.8296,17.6
67.8348,106
67.8428,244
67.8687,243.5
67.8728,540.9
67.8938,73.5
67.9137,757
67.9195,194.4
67.9537,536.2
67.9641,16.3
67.9838,125.7
67.994,221.6
68.0015,204.9
68.0347,652.7
68.0384,318.7
68.0447,407.1
68.0504,106.2
68.0573,388.5
68.0905,288.1
68.1041,69
68.1181,155.8
68.1223,73.7
68.1299,753.1
68.1758,540.2
68.1849,624.8
68.2028,124.7
68.2065,554.7
68.2125,167.9
68.2166,245.9
68.2231,323.1
68.2359,180.4
68.2365,1129.8
68.2451,357.1
68.246,277.4
68.2758,590.2
68.2839,806.6
68.2852,418.9
68.3027,130.7
68.3086,290.8
68.3171,125.3
68.3192,98.7
68.3213,286.6
68.3534,319.4
68.3628,293.5
68.3786,97
68.3841,305.6
68.3868,295
68.3875,80.5
68.389,295
68.3938,450.7
68.4454,312.2
68.4544,63.9
68.4627,583.9
68.4665,19.1
68.4714,208.4
68.475,234.2
68.4882,244.1
68.5189,606.3
68.5467,281.1
68.5481,639.9
68.5584,64.7
68.5898,16.3
68.6017,424.8
68.6053,64.2
68.6222,140.2
68.6229,584.1
68.63,219.7
68.6405,152.4
68.6565,80.6
68.6575,87.1
68.6699,21.1
68.7207,246.1
68.7447,15.7
68.7535,171.5
68.7672,223.2
68.779,452.2
68.7973,724.9
68.8297,17.7
68.8356,153.7
68.851,338.8
68.857,79.2
68.8693,98.6
68.8806,201.5
68.902,558.2
68.9246,16.8
68.954,76.1
68.9736,72.1
68.9812,275.8
68.988,78.7
69.0016,27.5
69.0039,259.1
69.035,306
69.051,362.1
69.0719,431.7
69.1108,244.2
69.1238,131.8
69.127,500.1
69.1374,804.9
69.1421,151.4
69.149,626.3
69.152,275.5
69.1541,66.5
69.1622,317.6
69.1823,173.1
69.2142,161
69.2162,112.5
69.2202,188
69.2219,459.8
69.236,15.9
69.2752,72.7
69.301,265.2
69.3072,78.6
69.3664,392.3
69.3713,116.9
69.3955,547.8
69.4007,355.8
69.4038,372.9
69.412,119.9
69.4234,85.5
69.4419,508.6
69.4463,130.1
69.4475,128.5
69.4513,212.8
69.4673,658.2
69.4716,152.4
69.4735,171.2
69.4772,84.1
69.536,15.5
69.5385,746.8
69.5397,71.8
69.5423,263.8
69.5529,110
69.5569,95.6
69.5692,22.1
69.5873,19.4
69.6051,18.3
69.614,219.4
69.626,136.3
69.6373,15.9
69.6474,107.7
69.6645,84.7
69.6658,198.8
69.6762,284.4
69.6913,118.5
69.695,133.4
69.6957,316.9
69.6963,165.3
69.7016,17.9
69.7057,665.3
69.7105,101.9
69.7159,428.3
69.7359,80.9
69.7365,23.5
69.7448,142
69.7476,197.1
69.7529,180.1
69.7903,296.1
69.8135,74.3
69.8226,474.5
69.8538,507.6
69.8566,169.8
69.8596,813.5
69.8676,106.8
69.8743,114.5
69.8784,80.2
69.9427,311.1
69.9689,668.9
70.0039,314.2
70.0124,305.3
70.0457,145.5
70.0605,71.6
70.0647,248.3
70.0764,16.7
70.0972,678.9
70.0978,159
70.1286,74.9
70.1405,17.6
70.1543,103.3
70.1927,97.8
70.2481,205.1
70.2676,158.7
70.2943,469.6
70.2972,503.6
70.3115,19.3
70.3426,187.1
70.3578,18.4
70.3705,303.2
70.4006,21.4
70.4039,289.1
70.4045,222.6
70.413,318
70.4204,498.1
70.4225,72.3
70.4377,430.9
70.4413,706.7
70.4466,138.3
70.4506,152.3
70.4611,17.3
70.4645,64.6
70.4683,260.5
70.493,80.1
70.5096,664.4
70.529,456.5
70.5307,94.9
70.5454,108.3
70.5541,296.7
70.5596,354.4
70.5654,133.7
70.5726,198
70.5788,78.7
70.5806,20.6
70.5829,104.6
70.5835,77
70.591,114
70.6089,87.8
70.6258,148.3
70.6284,192.7
70.6533,245.3
70.654,347
70.6551,332.4
70.6625,110.6
70.6909,269.5
70.7193,17.9
70.722,369.8
70.7248,353.6
70.7613,118.7
70.8506,689.7
70.857,511.4
70.8603,18.8
70.8882,393.1
70.9137,402.3
70.9215,68.4
70.9243,16.5
70.9468,382
70.9504,89.8
70.9541,85.2
70.963,286.9
70.9798,188.7
70.986,127.9
70.9927,142.1
70.9981,86.1
70.9996,126.2
71.0468,16.4
71.0531,107.2
71.0549,563.4
71.0817,161.6
71.0871,530.9
71.104,75.4
71.1327,650.3
71.1389,22.7
71.1433,137.3
71.1546,138.4
71.1814,68.7
71.1881,18
71.2041,108.9
71.2077,16.9
71.212,125.2
71.263,222.3
71.2674,16.4
71.2767,664.6
71.2904,244.6
71.3032,153.8
71.3415,232.7
71.3446,206.3
71.3674,175.4
71.3702,202.4
71.384,205.1
71.4015,227.3
71.4051,17.4
71.4085,88.5
71.4289,659.7
71.4299,365.1
71.4446,108.7
71.4459,394.3
71.4998,120.5
71.5013,170.8
71.5034,65.7
71.5056,557.8
71.51,330.2
71.5165,294.3
71.521,111.9
71.5458,62
71.5538,103
71.5754,101.7
71.5768,185.6
71.5777,92.9
71.5883,69.5
71.5909,102
71.6138,75.9
71.6217,609.3
71.6247,132
71.6292,190.6
71.6436,81.8
71.6499,73.3
71.6671,314.3
71.6811,21.6
71.6848,89
71.6941,238.9
71.7005,110.9
71.7068,70.7
71.7303,143.5
71.7723,618.7
71.7731,71.5
71.7789,89.6
71.7894,631.2
71.7974,400.5
71.8054,19.5
71.8078,124.4
71.815,19.6
71.8178,401.9
71.8201,157.5
71.8344,191.2
71.8352,64.1
71.8369,81.2
71.8477,272.2
71.8616,124.6
71.8869,132.9
71.8942,85.8
71.8981,410.7
71.8999,147.8
71.9025,17.3
71.9117,108.4
71.9141,94.8
71.9323,19.9
71.9488,146.7
71.9505,101.5
71.9647,573
71.973,709.1
71.999,253.1
72.0318,641.2
72.0396,80.1
72.0564,18.6
72.0756,205.8
72.0805,516.7
72.1081,114.2
72.1201,348.9
72.1577,16.5
72.1838,164.2
72.1926,196.7
72.2216,449.3
72.231,88.2
72.234,110.8
72.2384,147.4
72.2425,1156
72.2438,785.1
72.2447,612.3
72.2458,1442.8
72.2466,671.1
72.2475,2678.5
72.2488,1194.8
72.2494,882.5
72.2502,3395.8
72.2509,1809.5
72.2517,1406.3
72.2526,1864.7
72.2533,2485
72.2543,2919.3
72.2551,1552.1
72.2565,2730
72.257,1955.1
72.2577,2751.8
72.2588,1576
72.2597,1916.1
72.2609,1784.6
72.2617,1288.8
72.2628,1996.8
72.2636,2046.9
72.2643,447.6
72.2651,1009.6
72.266,418.8
72.2667,1086.8
72.2677,104.1
72.2685,305.8
72.269,194.5
72.2696,181.7
72.2707,239.2
72.2718,214.6
72.2732,128.2
72.2794,78.5
72.2812,274.9
72.2854,142.9
72.2926,116.3
72.2962,495.2
72.3082,713.8
72.3135,17.9
72.333,529.2
72.3344,114.5
72.3347,119
72.3446,553.1
72.3702,105.2
72.409,347.1
72.4116,151.9
72.4217,76.1
72.441,434.3
72.4523,80.3
72.4702,81.4
72.4763,152
72.4845,71.9
72.4885,226.8
72.5158,244.2
72.5229,306
72.5318,455.8
72.5358,145.9
72.5564,171.1
72.5873,386.6
72.5879,101.9
72.6153,232.4
72.6274,18.6
72.635,118.7
72.6446,699.8
72.6561,82.5
72.6669,16.7
72.7101,94.5
72.7391,74.7
72.7619,369.4
72.7695,75.8
72.7762,175.4
72.7927,169.4
72.7994,91.6
72.8001,16.3
72.8115,186
72.826,304.8
72.8412,161.5
72.8427,519.4
72.8465,138.9
72.8945,624.9
72.9073,118.7
72.9337,289.9
72.9368,592.1
72.938,293.9
72.9392,264.8
72.9424,432.5
72.9543,22
72.9557,382.9
72.9805,166.1
72.9852,630.1
72.9916,739.6
72.9965,89
73.0044,141.3
73.0198,359.9
73.0221,71.3
73.0518,76.5
73.0618,189.4
73.0637,176.3
73.0755,69.4
73.0799,86.7
73.1014,328.4
73.1077,167.7
73.1285,71.6
73.1346,250.7
73.1979,73.4
73.2042,283.1
73.2093,751.7
73.2199,189.9
73.2544,86.5
73.2586,80
73.3043,103.8
73.3053,172.2
73.3356,17.2
73.3386,240.1
73.3394,738.8
73.3407,15.4
73.3539,72.5
73.3633,124.6
73.3774,411
73.3846,598.2
73.3897,138.8
73.4057,613.4
73.4293,79.7
73.4381,139.6
73.4743,132.7
73.4813,252.7
73.4862,15.5
73.4903,211.7
73.5047,410.9
73.5072,261.6
73.5122,129.2
73.5131,17.1
73.5285,320.7
73.5489,17.9
73.5522,726.4
73.5673,83.1
73.5701,259
73.5839,15.5
73.5974,212.7
73.616,85.4
73.6439,470.8
73.6539,81.2
73.6627,165.4
73.671,19.1
73.6781,597.6
73.6843,488.5
73.7024,377.9
73.7035,654
73.706,155.1
73.7163,361.9
73.7437,215.1
73.7455,665.4
73.7467,82.1
73.7583,16.6
73.78,518.9
73.7873,183.9
73.7925,130.1
73.8114,81.6
73.8191,700.4
73.8328,120
73.8409,16.7
73.8767,16.8
73.8806,99
73.9138,490.1
73.9239,19.4
73.9279,258.2
73.9355,164
73.937,273.8
73.9422,284.4
73.9436,110.2
73.9488,18.3
73.9768,141.1
73.9997,69.4
74.0239,21.8
74.0511,22.5
74.0597,2335
74.0637,66.5
74.0997,170.7
74.1144,88.5
74.1205,540.2
74.1368,200.5
74.1462,229.2
74.1731,298.2
74.1797,206.9
74.1924,18.4
74.2288,90.6
74.2332,97.3
74.266,428.6
74.2736,392.3
74.2808,127.6
74.2849,19.2
74.2983,283.3
74.3591,661.3
74.3648,96.4
74.3697,66.8
74.374,78.4
74.3886,77.7
74.3893,72.1
74.4034,291
74.4108,713.3
74.4145,93.9
74.488,75.1
74.4927,102.1
74.5136,148.4
74.5163,212.9
74.5393,238.6
74.5438,721.7
74.5519,113.7
74.5827,16.5
74.597,74
74.6122,278.8
74.6684,309.9
74.6979,304.5
74.7086,145
74.7122,515.2
74.7159,79
74.7261,656.2
74.7353,146.4
74.7526,484.8
74.7613,116.7
74.7861,139.4
74.8313,267.8
74.8856,18.7
74.8872,129.9
74.9645,70.2
74.9704,79.3
74.9711,79.5
75.0045,150.2
75.0154,895.6
75.0176,410.4
75.0202,74.1
75.0233,176.9
75.0436,177.7
75.0632,145.1
75.0687,75.6
75.0739,145.3
75.0774,17.4
75.0823,93.6
75.0854,769.2
75.0887,286.1
75.1018,471.7
75.1245,376.1
75.1253,17.7
75.1395,108.3
75.1478,446
75.1607,230.2
75.1659,123.5
75.2202,76.8
75.2209,224.3
75.2336,316.5
75.2401,630.1
75.2672,193.3
75.2724,286.4
75.2736,96.3
75.2743,450.7
75.2982,86.5
75.3023,83
75.3074,237
75.332,511.3
75.3637,107
75.3702,18.7
75.3725,238.9
75.3745,312
75.3761,667.8
75.3844,16.1
75.3981,515.7
75.4246,82.7
75.4435,97.6
75.472,214
75.4795,539
75.4886,88.7
75.508,98.7
75.5257,121
75.5443,89.7
75.6534,19.7
75.6551,66.7
75.6644,17
75.669,609
75.6732,264.5
75.6746,308.2
75.6761,802
75.6832,99.9
75.6972,291.9
75.6991,542.3
75.7086,419.4
75.7152,87.9
75.746,285.5
75.7886,270.2
75.8028,74.5
75.8034,21.1
75.8041,211.1
75.83,17.1
75.8574,302.1
75.8758,225.9
75.8824,78.9
75.9079,138.3
75.9168,93.4
75.9302,75
75.9313,337.5
75.9331,17.9
75.9423,552.7
75.945,18.8
75.9475,654.1
75.9794,136.5
75.9839,122.9
76.0304,494.7
76.0603,74.1
76.0971,420.3
76.0975,542.9
76.0979,534.8
76.1842,518.4
76.1919,186.9
76.1977,72.4
76.2029,65.7
76.2276,73
76.232,293
76.2356,130.5
76.2398,89.2
76.2525,219.8
76.2848,83.1
76.2919,138.2
76.304,321.5
76.3075,203.6
76.3151,75.1
76.3239,77.6
76.3267,651.5
76.3347,86.4
76.3366,513.7
76.3661,72.2
76.3717,712.8
76.3855,156.4
76.3932,544.8
76.3942,107.9
76.3955,21.9
76.4134,107.6
76.4502,615.2
76.4519,530
76.4868,113.5
76.4962,548.2
76.5055,298.5
76.5086,300.9
76.5207,80.4
76.5325,115.1
76.5558,18.4
76.5684,20.3
76.5691,280.6
76.5964,84.1
76.6193,666.5
76.6456,245.4
76.6524,80.6
76.6565,106.1
76.6601,767
76.6679,234.2
76.7247,123.4
76.7546,136.9
76.7575,18
76.7788,68.6
76.7987,638
76.8084,67.8
76.8116,195.6
76.8179,83.3
76.8287,202.3
76.8353,108.7
76.8414,70.5
76.8502,363.2
76.8512,18.1
76.8806,340.6
76.8974,544.3
76.9242,345.7
76.9259,125.7
76.9488,258.9
76.9525,151.8
76.9581,87.8
76.9591,103.2
76.9638,186.7
76.9801,148.8
76.9813,18.9
76.9924,519.8
77.0269,673.1
77.0353,217.9
77.0362,385.9
77.0383,116900.8
77.0652,153.1
77.0751,204.8
77.1019,68.6
77.1109,512.8
77.1629,295.2
77.1885,234.5
77.1934,617.3
77.1949,210.5
77.203,74.5
77.2058,76.2
77.2451,110.2
77.2476,148.3
77.2649,211.7
77.2954,313.1
77.3191,86.3
77.336,358.3
77.3722,124.4
77.44,16.4
77.4566,579.3
77.5036,20.8
77.5139,136.8
77.5289,17.6
77.5319,326.5
77.5666,74.3
77.573,288
77.5737,99.8
77.5913,444
77.6082,223
77.6214,108.5
77.6314,266.3
77.6379,187.4
77.6428,65.8
77.6746,228.7
77.6753,108.9
77.6825,567.3
77.7014,262.6
77.7091,283
77.752,701.9
77.761,198.3
77.777,331.3
77.7877,20.9
77.7955,162
77.801,186.3
77.804,19.5
77.8066,150
77.8288,558.8
77.8361,17.6
77.8372,87.6
77.8456,346.1
77.8493,77.8
77.8896,688.7
77.9156,121.1
77.921,82.4
77.9326,625.3
77.9393,621.3
77.9406,478.2
78.0067,221.4
78.0145,271.2
78.0416,3640.6
78.0443,508.9
78.0527,65.3
78.1027,235.8
78.1077,17.2
78.1272,170
78.1285,486.3
78.134,668.6
78.1349,19
78.139,86.9
78.1466,74.7
78.1551,122.8
78.183,78.7
78.1842,74
78.188,442.1
78.1958,692.1
78.1976,86
78.2055,113.3
78.2184,86.5
78.2359,699.8
78.2502,90.4
78.2517,18.4
78.2549,155.5
78.2634,96.2
78.2769,121.2
78.282,16.3
78.2849,175.2
78.2989,357.2
78.3002,397.6
78.3075,328
78.3271,455.6
78.3428,18.7
78.3619,65.4
78.363,564.9
78.3872,116.3
78.3906,20.7
78.3977,94.3
78.4285,532.1
78.4294,263
78.4411,97.1
78.4486,99.1
78.4846,98.4
78.4923,193.7
78.4983,122.1
78.5087,418.2
78.5199,350.9
78.5241,624.1
78.5399,288.7
78.5503,16.3
78.5575,18.5
78.5814,236.7
78.5826,116.5
78.6128,110.2
78.6206,272.7
78.6502,118.1
78.6509,645.5
78.6695,240.2
78.6706,158.8
78.6784,214.5
78.7039,16.9
78.7401,112.1
78.7821,481.3
78.7837,439.6
78.7868,102.7
78.8128,68.5
78.839,294.5
78.8593,703.1
78.8658,726.8
78.8836,22.1
78.8901,550.3
78.8954,295.6
78.9041,284.7
78.9176,653.1
78.9273,547.3
78.9308,386.9
78.9327,78.2
78.9373,235.3
78.9405,82.6
78.9737,119
78.9968,92.8
79.0032,21.5
79.0138,91.8
79.0391,211.1
79.0461,76.9
79.0539,2219.5
79.056,210.4
79.0621,391.1
79.0689,406.5
79.0928,291.9
79.1162,113.9
79.1218,194.2
79.1378,122.6
79.1399,106.7
79.1548,74.1
79.1899,324.4
79.1902,352.5
79.1905,285.2
79.2333,164
79.2755,804.1
79.2906,515.5
79.3405,82.8
79.4338,139.9
79.4435,85.8
79.4525,20.9
79.4539,80.3
79.4596,16.7
79.5603,128.9
79.5784,103.8
79.5865,280.6
79.5961,19.9
79.6104,193.3
79.6317,169.3
79.633,139.6
79.6563,268.7
79.6707,82
79.7212,186
79.7253,93.4
79.7489,612.3
79.7615,73.7
79.771,96.9
79.7894,88.3
79.8236,295.3
79.8251,549.5
79.8302,501.6
79.8482,489.1
79.8524,119
79.8649,19.4
79.9288,430.3
79.9364,172.6
79.9505,281
79.9798,223.6
80.0202,74.3
80.0214,451.3
80.0405,154.9
80.0454,313.3
80.0994,17.4
80.146,16.9
80.1545,93.1
80.2165,17.1
80.2331,469.6
80.2524,82.8
80.2741,77.3
80.2902,85.7
80.3095,327.4
80.3405,23.6
80.3605,287.1
80.3692,444.2
80.3785,159.1
80.4142,326.7
80.4552,139.1
80.4601,423.7
80.4779,212.7
80.5019,213.7
80.5047,408.6
80.513,297.6
80.5348,324
80.5397,77.9
80.5475,398.5
80.5625,90.7
80.6471,67.5
80.6736,282.2
80.7126,84
80.734,612.7
80.7418,357.9
80.7443,81.4
80.7665,91.1
80.7822,70.6
80.7977,160.4
80.8091,709.9
80.8344,643.5
80.8413,71.1
80.8546,16
80.8595,229
80.8725,134.1
80.882,391.9
80.8837,15.8
80.8943,15.7
80.927,106.5
80.9476,45769.5
80.9506,216.3
80.9525,604.9
80.9608,258.6
80.9665,100.9
80.9696,622.7
80.977,18.2
80.9838,217.5
81.0031,120.1
81.0463,16.3
81.0605,108.6
81.0696,1614.1
81.0729,123.6
81.0737,219.1
81.1179,182.6
81.1223,306.4
81.1426,186.1
81.1509,78.7
81.1568,523.7
81.1581,2656.4
81.1592,1012.8
81.16,307.2
81.1605,101.1
81.1633,85.1
81.165,355.5
81.1705,280.8
81.1903,314.8
81.2135,69.8
81.2219,189.6
81.2502,74.8
81.278,289.9
81.2971,74.2
81.3366,221.4
81.3649,151.5
81.3771,93.7
81.4191,118.8
81.4527,316
81.4536,81.4
81.4593,88.4
81.4788,234.7
81.4835,211
81.4845,98.3
81.4857,112.6
81.4942,78.6
81.5114,112.2
81.5306,554.4
81.5632,490.8
81.5669,17.2
81.5826,171.1
81.6078,746.9
81.6131,360.8
81.6254,615.5
81.6395,408.2
81.6542,787.5
81.6604,673.1
81.6709,79.1
81.6756,283.6
81.694,66.5
81.7012,70.5
81.7053,449.9
81.7125,91.6
81.72,131.8
81.7308,71
81.7374,461.4
81.7389,179.6
81.7407,91.3
81.7441,367.8
81.7841,799.6
81.7967,65.7
81.8659,315.6
81.8753,137
81.8852,233.3
81.8876,423
81.8904,125.1
81.9024,18.5
81.9088,80.8
81.9191,606.6
81.9461,91.2
81.9735,78.1
81.9998,189.4
82.003,317.6
82.0136,419.4
82.0179,348.8
82.0231,15.8
82.0407,669.8
82.0869,82.3
82.0971,94.7
82.1144,118
82.1997,223.6
82.2017,449.4
82.2152,440.7
82.2616,596
82.2739,160.6
82.2785,262.8
82.2851,75.5
82.3228,102.3
82.331,100.6
82.351,285.5
82.3728,571.3
82.3831,351.4
82.385,589.2
82.3996,77.9
82.4026,511
82.4078,17.1
82.4197,118.4
82.4245,395.9
82.4851,131.2
82.4912,633
82.5504,122.8
82.556,543.7
82.5777,84.8
82.5856,17.8
82.59,147.2
82.5967,232.4
82.6409,461.7
82.6477,157.5
82.6524,16.9
82.6608,838.8
82.6721,269.4
82.7662,193.9
82.7839,663.7
82.7958,282.8
82.8043,376.2
82.8141,401.5
82.842,203.8
82.8454,709.6
82.8545,206.1
82.8575,269.5
82.8714,228
82.8719,15.3
82.882,16.3
82.8911,286.1
82.8984,151
82.9004,22.1
82.9167,192.6
82.9303,254.8
82.9446,11687.6
82.9573,122.2
82.9706,151.4
82.9939,602.5
83.0052,590.3
83.0213,105.2
83.0705,862.6
83.0736,617.3
83.0812,78.8
83.0923,591
83.0966,839.5
83.1013,279.3
83.1248,351.9
83.1322,65.5
83.1328,20.9
83.1624,137.5
83.1765,853.6
83.1952,584.2
83.2032,454.9
83.2285,194.9
83.2314,283.1
83.2335,70.8
83.2378,150.1
83.2684,17.8
83.2916,719.6
83.3162,92.1
83.3223,319.2
83.3331,87.6
83.3642,111.9
83.3937,19.7
83.3993,82.1
83.4044,307.9
83.4098,437.7
83.4195,214.9
83.429,84
83.4577,195.2
83.461,84.9
83.4683,154.9
83.4697,104.5
83.5117,244.5
83.5504,444.3
83.5977,84.2
83.6038,70.7
83.6229,647.8
83.6425,253.3
83.645,18.9
83.6811,203.3
83.6888,106.9
83.7109,313.7
83.7126,144.1
83.7245,450.5
83.7294,96.7
83.7301,151.2
83.7361,640.5
83.7378,19.4
83.7401,120.7
83.7657,268.6
83.7838,401.2
83.82,243.7
83.8342,563.5
83.8732,66.1
83.8962,116.6
83.9119,542.7
83.9204,300
83.9648,149.3
83.9746,112.4
83.9773,19.6
83.9926,70.4
84.0164,108.2
84.0442,82.5
84.0577,83.5
84.0585,549.6
84.0806,78.9
84.0817,669.6
84.0908,375.2
84.1027,17.3
84.1096,102.7
84.1192,365.1
84.127,18.8
84.1532,456.2
84.1603,100
84.182,19
84.2113,151
84.2215,271.3
84.223,479.6
84.2244,117.5
84.2434,16.4
84.2935,94.9
84.3098,504.9
84.3172,244
84.348,351.9
84.3604,16.8
84.3915,92.2
84.4393,195.8
84.4489,205.9
84.4509,681
84.4522,78.5
84.4817,448.5
84.4872,196.2
84.4939,81.2
84.5134,17.7
84.5206,126.1
84.5348,70.2
84.5391,116.7
84.5654,109.4
84.5686,83.9
84.5708,70.3
84.5793,721.2
84.5803,458.9
84.5848,761.7
84.5909,169.1
84.5992,702.5
84.6058,467.7
84.6101,231.7
84.6164,416.2
84.6469,187.1
84.6691,75.3
84.7232,90.5
84.7384,114.6
84.7593,360.1
84.7681,16.4
84.7685,16.7
84.792,224
84.7957,502.5
84.8009,84
84.8237,516.3
84.8375,619.3
84.8754,17
84.9114,145.6
84.9583,86.1
84.9595,17104.1
84.9712,322.9
84.9975,190
85.0031,109.3
85.01,140.2
85.0132,296.3
85.0231,71.5
85.0584,368.5
85.0679,182.5
85.0758,526
85.1934,136.1
85.2154,75.4
85.2228,391.2
85.2258,515.1
85.2383,545.8
85.2515,413.1
85.2862,97
85.3029,169.1
85.3178,391.7
85.3591,17.4
85.3912,74.8
85.4271,164.5
85.4482,121
85.4565,101.8
85.4655,293.9
85.4718,717.8
85.4799,293.3
85.491,367.8
85.4964,533.4
85.5021,327.1
85.5256,645.8
85.5344,85.8
85.5434,320
85.5631,22.7
85.5655,91.6
85.5828,81.1
85.6129,352.7
85.6483,374.6
85.6555,170.4
85.687,93.8
85.6883,240.8
85.6952,16.8
85.7049,23.2
85.7161,172
85.7237,650.9
85.7289,17.8
85.7675,70
85.8215,71.9
85.8685,599.9
85.8874,644
85.9132,635.4
85.9496,371.5
85.9729,321.7
85.9798,103.6
85.9897,67.9
86.0069,68.9
86.0089,238.6
86.013,343.9
86.0545,88.6
86.0572,602.3
86.0598,30994.7
86.0962,85835
86.1034,137.5
86.111,122.8
86.1195,178.4
86.1359,302.6
86.1518,199.4
86.1563,83.8
86.1648,150.9
86.1699,268.7
86.1747,136.7
86.196,196.4
86.2026,798.1
86.208,416.4
86.2323,17.3
86.2562,233.5
86.2903,501.4
86.3616,346.8
86.3742,800.1
86.3809,109.9
86.3836,155.1
86.395,481.7
86.4144,100.4
86.4179,80.7
86.4715,113.2
86.4876,17.5
86.493,522
86.5046,168.8
86.5473,125.5
86.5752,531.9
86.5776,89.3
86.5828,18.6
86.6107,129.6
86.6263,282.7
86.6437,116.8
86.6756,191.8
86.694,336.3
86.7618,18.3
86.8112,122.4
86.8259,347.9
86.8299,305.4
86.8608,178.2
86.8633,136.2
86.8711,485.7
86.8993,602.8
86.9024,328.2
86.9066,295.7
86.9307,170.7
86.9321,321.5
86.9395,583.8
86.9441,87.3
86.9469,551
86.9525,162.4
87.0133,91.4
87.0209,273.9
87.0248,17.7
87.0316,155.3
87.085,731.9
87.0997,867.7
87.1071,294.4
87.1982,548.7
87.1998,102.2
87.2077,125.4
87.2115,97.5
87.2251,158.4
87.2493,21.1
87.2512,552.7
87.3187,866.2
87.3206,159.8
87.321,321.2
87.3212,304.5
87.3446,90.8
87.3564,162.2
87.3751,171
87.3846,80.5
87.3858,479.4
87.4007,160.9
87.4362,488.8
87.4504,127.5
87.4619,137.1
87.4733,317.8
87.5463,115.1
87.5651,263.1
87.6407,152.6
87.6616,149.3
87.6964,660.3
87.7018,65.4
87.7741,93.9
87.7831,203.1
87.8027,18.2
87.827,130
87.8315,148.7
87.8443,220.5
87.8536,119.5
87.8659,342.3
87.867,212.2
87.8935,224
87.9047,76.3
87.9304,104.7
87.9354,97.4
87.9492,20.1
88.0063,170.4
88.0391,5855.7
88.0613,87
88.0765,498.3
88.088,155.2
88.0947,139.2
88.1201,80
88.1478,287.7
88.1491,83.8
88.1503,85.6
88.1817,549.4
88.2164,128.2
88.2312,110
88.2343,232
88.2618,153.6
88.2679,612
88.2765,74.3
88.2817,681.7
88.286,153
88.3445,357.1
88.3648,68.1
88.3662,853.2
88.3869,191.3
88.4512,738.8
88.4566,127.9
88.4606,110.5
88.4642,164
88.4846,20.9
88.491,17.4
88.4949,239.8
88.5354,374.5
88.5406,85.4
88.546,18.9
88.5764,154.7
88.6043,241.4
88.621,21.1
88.6763,1070.5
88.6774,443
88.6798,295.9
88.6831,114.1
88.6938,607.7
88.7741,128.3
88.7855,403.3
88.7904,253.4
88.893,297.1
88.9272,141.8
88.9274,144.7
88.9391,83.3
88.9485,164.7
88.9521,72.5
88.9682,24.2
88.9772,626.7
88.9852,451.3
88.9858,717.1
88.9871,99.9
88.9892,457.8
88.9907,164.5
89.0117,320
89.0537,182.3
89.0731,515
89.1253,455.4
89.1937,90.6
89.205,222.1
89.2067,232.2
89.2314,123.5
89.2648,288.5
89.3153,104.7
89.3161,161.1
89.3223,19.7
89.3234,94.2
89.3493,357.2
89.3719,85.1
89.3791,231.1
89.386,17.1
89.4109,73.1
89.4131,65.7
89.4152,385.4
89.4168,367.9
89.4231,115.2
89.4253,149.8
89.4257,138.5
89.4261,111.7
89.4654,19.7
89.4719,311.6
89.4839,314.4
89.5253,120.7
89.5371,78.5
89.5568,190.4
89.6326,429.4
89.6374,411.7
89.6572,619
89.6609,300.2
89.6627,188.1
89.6643,76.5
89.6847,803.3
89.6879,163.2
89.6903,344.4
89.7201,88.1
89.7212,300.6
89.7376,20.1
89.788,19.2
89.8005,191.2
89.8169,571.4
89.8499,419.6
89.8739,340.9
89.8921,20.7
89.9344,19.8
89.9634,334.6
89.9681,574.3
89.9726,73.4
90.0145,556.5
90.0579,829.2
90.0689,433.3
90.0738,459.8
90.0801,341.8
90.1123,157.7
90.1232,504.9
90.1362,625.6
90.1715,328.9
90.1832,220.6
90.2129,372.3
90.2149,21.7
90.2595,181.9
90.2661,19.3
90.3026,491.9
90.3303,531
90.3562,448.8
90.374,75
90.379,355.8
90.3851,16.7
90.3975,555.1
90.4487,179.5
90.5288,157.3
90.5558,147.6
90.5709,271.3
90.6147,231.7
90.6159,132.2
90.6175,230.6
90.6273,314.8
90.6647,102.7
90.6816,157.9
90.6925,271.7
90.7466,21.7
90.7896,332
90.8078,117.4
90.8455,101.7
90.8557,121.8
90.8617,273.8
90.903,52.4
90.9142,81.3
90.9475,3508.6
90.9526,185
90.9691,117.2
90.9764,6343.8
90.9971,144.3
91.0469,575.6
91.054,2496.8
91.0657,198
91.0869,158.8
91.096,24.2
91.1083,132.8
91.127,544
91.1562,220.5
91.2045,112.6
91.2238,207.7
91.2592,83.6
91.3087,388.3
91.3181,294.8
91.3386,280.7
91.3561,153.5
91.3677,101.2
91.4223,497.3
91.438,678.3
91.4778,339.3
91.4881,74.3
91.5045,673.6
91.5074,103.3
91.5076,120.4
91.5126,307.6
91.5169,233.8
91.5601,89
91.5749,319.9
91.5894,132.9
91.6035,205.2
91.6063,100.3
91.6129,112.8
91.6389,160.1
91.645,104.3
91.6501,439.1
91.6595,71.9
91.6914,377.8
91.7141,725.1
91.7491,69.5
91.8595,721.9
91.9178,18.6
91.9572,176.6
91.9874,108.9
92.0493,119.6
92.0574,22.2
92.0671,119.7
92.0741,193.3
92.0794,446.3
92.0851,113.9
92.0869,487.1
92.0927,393.3
92.0948,402.5
92.1071,241.1
92.1091,280.2
92.1132,284.3
92.1347,154.8
92.1471,511.5
92.1901,192.5
92.1936,273.4
92.1997,107.6
92.2161,82.8
92.2313,237.6
92.2322,178
92.272,147.9
92.2736,22.6
92.3419,139
92.3629,207
92.3746,94.6
92.3993,493
92.406,103.5
92.4288,335.4
92.4471,594
92.4516,99.1
92.453,103.1
92.5044,76.1
92.523,729.7
92.5239,124.9
92.5342,533
92.5563,311.5
92.5712,269.2
92.5758,352.2
92.5825,233.7
92.6323,216.7
92.6347,285
92.6394,104.5
92.6694,19
92.6929,18.8
92.7076,353.3
92.7112,208.5
92.7192,275.8
92.7211,101
92.7261,631.8
92.7644,17.8
92.7753,332.6
92.796,527.5
92.7983,354.2
92.8299,277.4
92.8453,18.3
92.858,267
92.8639,418
92.9024,521.5
92.9167,580.5
92.9279,440.9
92.9342,550.8
92.9488,120.4
93.0125,466.2
93.0236,569
93.0247,293.2
93.0652,20.2
93.0697,490.1
93.1002,80
93.1041,157.1
93.1164,82.5
93.1206,18.3
93.1548,728
93.2331,370.2
93.2459,17.9
93.2621,134.1
93.2684,98.5
93.2909,185.9
93.3177,669.2
93.3203,17
93.3593,90.6
93.3646,991.7
93.4224,281.4
93.438,296.1
93.4489,286.4
93.4647,269.7
93.4797,20.7
93.4906,266.8
93.4988,88.6
93.51,476.5
93.5196,133
93.5386,21.2
93.5493,159
93.6233,296.5
93.6243,97.3
93.6382,18.7
93.6671,21
93.689,631
93.7133,194.6
93.7158,75.9
93.7388,85.7
93.7447,284.9
93.7595,116.5
93.7917,289.1
93.8248,72.3
93.8275,209.6
93.8366,759.7
93.8542,94
93.8718,331.6
93.8964,213
93.9077,18.5
93.9116,824.1
93.9136,222.6
93.9188,563.1
93.9248,586.7
94.0228,404.9
94.0316,419.7
94.0386,22.8
94.0396,46.6
94.0411,72946.4
94.0428,28
94.0715,20.7
94.097,270.2
94.1134,71.6
94.1451,150.6
94.1509,190.9
94.2233,112.6
94.3208,161.4
94.3328,259.9
94.4202,132.7
94.4243,353.7
94.4675,71.2
94.5218,527.2
94.5563,77.2
94.5598,271
94.6089,78.4
94.6777,81.9
94.6963,335.3
94.7201,330
94.7668,101.5
94.7697,72.4
94.811,108.7
94.8262,514.6
94.8412,323.3
94.8564,204.4
94.8608,311.3
94.8845,779.2
94.891,726.2
94.9027,21.6
94.9314,614.1
94.9358,203.1
94.9609,131.8
94.9954,577.7
95.0112,74
95.0146,187.2
95.0152,207.4
95.0297,76.7
95.0354,85.7
95.0445,1583.2
95.047,71.7
95.0476,153.2
95.0489,406080.6
95.0504,193.5
95.0509,145.9
95.0624,32.8
95.0678,350.8
95.0715,191.5
95.0793,225.2
95.0853,426.1
95.0885,303.2
95.1144,375.4
95.1163,372.6
95.1216,21
95.126,441.3
95.1455,105.3
95.15,310.4
95.1555,17.6
95.157,18.7
95.172,247.4
95.2075,17
95.2094,741.5
95.2366,20.9
95.2825,78.4
95.2893,17.4
95.2995,121
95.3005,86.8
95.3226,197.4
95.3495,19.6
95.38,778.5
95.4219,201.2
95.4614,82.5
95.4676,286.2
95.4791,181.5
95.4863,229.8
95.4908,86.7
95.5193,83.3
95.5308,520.8
95.5424,100.4
95.5467,352
95.5486,18.7
95.5998,476
95.6485,17.9
95.6757,68.3
95.6815,710.8
95.684,80
95.6897,204.9
95.7521,168
95.7617,209.1
95.8018,94.9
95.8061,148.4
95.8218,82.6
95.8223,70
95.9043,99.4
95.9081,19.6
95.9611,18.4
95.999,230.3
96.0073,100.6
96.0083,18.4
96.0523,19125.2
96.0636,701.7
96.069,19.1
96.1436,344
96.172,100.7
96.226,21.8
96.2715,488
96.2736,17.9
96.2946,161.6
96.3102,82.5
96.317,419
96.3205,718.5
96.3245,357.3
96.3529,584.1
96.4101,534.3
96.4157,442.9
96.4279,77.9
96.4591,96.3
96.4676,297.8
96.5021,180.5
96.5344,299.9
96.5349,301.3
96.5466,161.6
96.5522,109.6
96.5584,263.1
96.5811,134.8
96.5923,182.3
96.6126,300.7
96.6463,410.5
96.651,621.3
96.6764,97.3
96.6793,209.8
96.7048,228.5
96.7613,171.7
96.7729,645.5
96.7817,351.8
96.7886,241.7
96.8028,331.3
96.8082,93.2
96.8318,370.5
96.8437,296.5
96.8595,206
96.8725,726.8
96.8786,94.7
96.8954,92.2
96.9156,350.7
96.9216,133986.4
96.9341,79.9
96.9374,94.9
96.9591,293.6
96.9675,290.1
96.9841,205.1
96.9879,109.2
97.0074,96.8
97.0106,29.8
97.0531,54.6
97.0556,55.4
97.0647,20.2
97.0711,133
97.0741,176.3
97.101,30.9
97.1221,97.6
97.266,235.2
97.2718,237.9
97.3133,181.1
97.3302,146
97.3444,488.3
97.3564,21.3
97.3615,80.2
97.4124,538.5
97.4195,101.2
97.47,279.2
97.4793,115
97.4898,71.7
97.5081,163.3
97.5161,356.4
97.5349,145.2
97.5395,17.5
97.5414,61.1
97.5743,648.6
97.5911,18.6
97.5923,1072
97.6055,148.6
97.6232,262
97.6756,238.5
97.6817,88.9
97.6833,167.1
97.6971,62.6
97.7187,80.5
97.8114,105.4
97.8371,256.7
97.8666,160.4
97.8745,224.8
97.9037,291.2
97.918,87
97.9194,366.4
97.9339,68.5
97.9857,414.8
98.0059,99.8
98.0305,335.3
98.063,274.2
98.1052,20.3
98.1331,74.1
98.1388,274.7
98.1588,334.8
98.1596,83.9
98.1619,90
98.1779,319
98.1834,149.5
98.1978,16.3
98.203,393.7
98.2165,78.2
98.2854,18
98.2901,203.2
98.2999,95.6
98.3264,19.2
98.3397,351.6
98.3579,593.8
98.4136,87.2
98.451,930.7
98.4581,258.6
98.4835,723
98.49,257.5
98.5359,17.3
98.5368,19.6
98.5666,171.5
98.6164,305.1
98.6378,429.3
98.6894,669.3
98.7944,138.5
98.8256,107.2
98.8425,265.1
98.8486,668.7
98.8545,22.3
98.8911,72.3
98.8953,18.8
98.9186,35216.9
98.9197,4578.8
98.9284,890.9
98.9419,409.9
98.9752,9680.2
98.984,27.3
98.9998,110.5
99.0019,734.9
99.035,202.1
99.0518,21.8
99.0696,123
99.0916,114
99.1364,118.5
99.1591,435.1
99.1852,76.2
99.1963,427.5
99.2024,141.1
99.2217,225.4
99.2417,310.8
99.2667,562
99.2728,198.5
99.302,90.4
99.3138,138.4
99.3465,517.7
99.4315,144.8
99.4684,82
99.4791,712.4
99.4983,86.5
99.5628,16.6
99.5693,556.2
99.5851,274.1
99.6198,243.4
99.7501,78.2
99.7603,319.8
99.7884,768.2
99.8394,113.6
99.8691,319.1
99.8736,236.5
99.8925,129.5
99.9193,385.9
99.9399,317.5
99.9463,349.4
100.0458,157.2
100.0754,18.7
100.109,148.9
100.1408,260.3
100.1655,73.3
100.1686,160.1
100.1772,72.7
100.1827,70.8
100.1939,151.9
100.2096,229.4
100.2258,121.9
100.2329,435.1
100.2618,133.9
100.2857,74.5
100.2894,96.1
100.3068,20.6
100.325,299.6
100.3563,423.3
100.3893,76.2
100.402,479.7
100.4043,96.8
100.4088,76.2
100.4523,17.1
100.4549,108.3
100.4818,138.4
100.4832,166.4
100.4836,162.7
100.5115,611.8
100.5399,296.9
100.5634,343.7
100.5733,639
100.5817,358
100.6503,180.7
100.6896,16
100.7154,109.7
100.7429,192.9
100.7591,153.7
100.7629,490.8
100.7794,581.3
100.8303,169.8
100.8336,107.5
100.8684,303.2
100.8749,163.9
100.878,17.5
100.8996,20.9
100.9131,196.8
100.9168,1270.3
100.9521,75.2
100.9996,67.1
101.0431,85.6
101.047,1690.7
101.0492,167.9
101.0707,950.1
101.0783,138.1
101.1045,282.9
101.1188,169.7
101.1298,232.1
101.1339,671.6
101.1811,20.5
101.1862,85.9
101.2419,637.8
101.2471,170.2
101.2549,19.5
101.3142,80.1
101.3726,119.2
101.3916,150.2
101.3963,15.9
101.3991,799.8
101.4335,245.8
101.4607,531.1
101.471,302
101.5664,286.9
101.5769,226.4
101.5921,551.7
101.6319,282.8
101.6727,294.9
101.7005,632.9
101.7222,666
101.7369,624.1
101.7673,658.5
101.7865,118.8
101.7978,110
101.8243,426.3
101.829,75.4
101.8548,78.7
101.873,195.8
101.8799,165.5
101.952,811
101.9602,378.6
101.9635,205
101.972,568.7
101.9989,166.9
102.0414,253.3
102.0548,3975.4
102.0593,91.6
102.0951,166.7
102.1028,85.7
102.1831,177.2
102.1986,22.6
102.2219,573.2
102.2939,163.1
102.3815,356.9
102.3909,382.4
102.4008,104.2
102.4136,90.8
102.4151,185.4
102.4175,118.1
102.4272,81.7
102.4287,106.5
102.44,729.8
102.444,19.6
102.4617,566.2
102.5216,108.1
102.5358,218.3
102.6085,16
102.6779,312.2
102.7098,67.4
102.7638,669
102.7694,522.6
102.7827,78.4
102.7875,71.7
102.8071,90.8
102.8111,117
102.8294,116.8
102.8597,156
102.8699,159.6
102.8829,629.6
102.8843,78.4
102.9077,430.9
102.9374,507.6
102.9678,137
102.9701,488.4
102.9732,653.6
102.9838,25.2
102.987,967.3
102.9959,163.2
103.0451,205.7
103.0615,389.9
103.0627,138.5
103.0653,599.3
103.1378,96.8
103.1461,264
103.2029,97.2
103.2504,483.3
103.2666,352.4
103.2725,363.7
103.2996,576.9
103.3166,155.1
103.3359,18.8
103.3424,844.8
103.3614,156.2
103.3836,138
103.4083,92.7
103.4126,92.2
103.4239,279.9
103.4924,777.2
103.4993,319
103.5039,684.1
103.5209,190.9
103.5511,382.6
103.5514,392.5
103.552,216.1
103.5556,18.7
103.6117,364.9
103.6264,80.2
103.6296,72.7
103.6414,130.8
103.6576,209.6
103.7283,580.3
103.7595,93.1
103.7947,730.9
103.7993,193.6
103.8257,181.6
103.853,216
103.8896,15.3
103.9032,516.1
103.9087,95.9
103.9155,456.4
103.9336,244.1
103.9763,102.6
103.9791,234.7
103.9837,188.7
104.0012,139.2
104.0268,280.5
104.075,18.9
104.0873,63.5
104.1036,311.3
104.1068,383477.1
104.1538,75.4
104.1685,504.6
104.1756,208.8
104.1853,358.3
104.2251,217.6
104.2352,406.4
104.2478,164.9
104.2712,72.4
104.3928,463.3
104.4207,291.4
104.4234,155.3
104.4314,77.8
104.4355,539.5
104.4378,574
104.5581,100.6
104.587,132.5
104.594,187.6
104.6387,717.8
104.6461,329.7
104.6698,198.2
104.6756,156.2
104.679,358.3
104.6797,83.6
104.6824,22.3
104.7231,129.4
104.7503,118.4
104.7855,88.4
104.7922,194.4
104.8138,179.1
104.8198,505.7
104.8317,73.3
104.941,311.9
104.9479,155.7
104.9596,96.1
104.9632,4085.1
104.9867,379.2
104.9921,1922.8
105.0146,269.7
105.03,287.9
105.0446,37573.2
105.0698,23.5
105.1065,90.5
105.1102,12613.2
105.1219,308.3
105.138,663.5
105.1478,111.5
105.1689,18.5
105.1704,273.4
105.2407,213.4
105.2472,266.6
105.2504,22.6
105.3406,73.7
105.3505,18.7
105.3726,151.6
105.4039,101.3
105.4331,199.7
105.4495,481.8
105.4941,384
105.5274,363.1
105.5633,96.8
105.6115,123.4
105.6154,16
105.6386,71.3
105.6902,99.7
105.737,99.3
105.7796,212.3
105.7892,66.7
105.8874,147.7
105.8915,150.6
105.9372,271.4
105.9636,90.9
105.9667,18.7
105.9844,171.7
105.9977,149.6
106.0086,107.2
106.02,201.7
106.0258,191.7
106.0479,296.4
106.0649,73.5
106.0705,196.5
106.0963,98
106.1007,288.2
106.1034,66.3
106.1048,498.6
106.1346,156.2
106.1462,185.3
106.167,258.4
106.1896,69.5
106.1934,426.8
106.2071,156.9
106.2441,371.3
106.2565,92.6
106.3274,606.2
106.379,194.9
106.3865,106.4
106.4055,79.6
106.4164,229.7
106.4395,662
106.4432,156.7
106.5084,16.6
106.5134,653.1
106.5192,16.6
106.5653,149.9
106.615,149.4
106.6485,95.6
106.6516,253.8
106.6795,86.3
106.6936,98.1
106.6959,341.3
106.7142,16.6
106.7296,166.5
106.7343,16.9
106.7454,296.7
106.7553,337.7
106.785,391.4
106.7982,286.4
106.8121,367
106.8192,279.9
106.8476,502.1
106.8609,17.1
106.8658,264.2
106.9265,289.2
106.9301,20
106.9434,43.4
106.9504,3363.8
106.9637,67.3
106.9791,232.3
106.985,453
106.9887,71.9
106.9918,46.9
107.0214,378.7
107.0282,77.4
107.0491,1305.3
107.1079,295.5
107.1254,328.4
107.1895,119.3
107.2078,399.6
107.2371,472.9
107.2453,113.4
107.252,266.1
107.2644,20.1
107.2994,550.3
107.3179,84.7
107.3457,71.7
107.3517,18.2
107.3666,219.8
107.3785,348.5
107.39,478.7
107.4144,18.2
107.4909,461.8
107.4926,316.7
107.5057,307.5
107.513,324.5
107.5208,128
107.5221,184.4
107.5933,116.3
107.5972,129.3
107.668,585.9
107.674,148.7
107.6793,222.7
107.6932,709.9
107.7057,169
107.7282,152.1
107.7334,263.2
107.7441,437.1
107.7917,321.3
107.7933,18.2
107.8032,138.9
107.81,561.2
107.8188,93.7
107.8361,122.8
107.8691,329.9
107.9193,397.1
107.9322,104.8
107.9351,187.6
107.9665,219.3
107.9934,100.7
108.0011,646.6
108.0166,456.4
108.0361,67.3
108.0554,99.7
108.1439,86.1
108.1919,70.5
108.1995,272.4
108.2404,856.6
108.2881,444.6
108.3016,18.4
108.3332,106.9
108.3455,442.2
108.3483,165.2
108.3775,133.2
108.3965,340.9
108.4025,88.3
108.4117,689.1
108.4327,73.8
108.4348,298.7
108.4374,616.2
108.4934,77.8
108.5104,269.8
108.5543,526.9
108.5724,96.1
108.5859,17.3
108.653,273.2
108.6834,257.9
108.7752,672.5
108.7935,90.4
108.8421,153.5
108.9139,19.6
108.9253,118.1
108.9356,269.8
108.9399,697
108.9581,36.6
108.9646,132.6
108.9981,162.3
109.0104,19.7
109.0646,79085.4
109.101,62.6
109.108,18.8
109.1725,666.3
109.201,709.9
109.2077,70.3
109.2178,248.1
109.2264,97.6
109.231,596.3
109.262,15
109.2675,16.5
109.3378,112.1
109.35,99.2
109.3847,667.7
109.4268,324.7
109.4906,383.5
109.5109,386.4
109.5762,613.5
109.5916,198.8
109.6098,302.7
109.6151,89.9
109.6193,399.8
109.6267,87.2
109.6432,106.2
109.6678,673.6
109.7081,832.2
109.7141,180.8
109.733,96.9
109.7351,132.3
109.7381,770.9
109.7533,18
109.8475,197.6
109.8885,76.8
109.9748,618.1
110.0028,660.2
110.068,3326.4
110.071,1324.5
110.0876,104.7
110.1912,16.3
110.2,219
110.2345,290.7
110.2707,324.2
110.2758,128.4
110.2986,84
110.3467,487.6
110.3891,205.2
110.4872,88.1
110.5145,107.5
110.5916,82.8
110.6349,229.1
110.6486,159.9
110.6501,163.9
110.6897,153.6
110.6923,381
110.7261,296.9
110.7391,16.8
110.788,109.1
110.8587,115.5
110.891,377.6
110.9281,370.3
110.986,727.2
110.9942,694.4
111.0231,247.4
111.0253,687.3
111.0439,183.2
111.0622,118.6
111.0638,177.4
111.104,410.3
111.1735,492.4
111.1826,229.3
111.2368,280.4
111.2831,255
111.2911,413.1
111.3463,115.5
111.3602,79
111.3933,82.8
111.447,315.5
111.4513,210.9
111.4791,225.1
111.4888,164.8
111.5031,76.3
111.5146,78.5
111.5158,112.9
111.5243,593
111.5498,171.2
111.5539,18.8
111.5589,495.7
111.5672,372.7
111.5714,100.3
111.5792,355.5
111.5871,439.8
111.6484,77.6
111.68,575.7
111.7729,342.9
111.7753,190.3
111.8209,87.6
111.8505,361.7
111.9342,373.8
112.098,613.3
112.0994,710.5
112.1091,88.2
112.1113,512.8
112.165,176.8
112.227,74.4
112.2444,781
112.3981,210.7
112.4144,66.3
112.4908,108.9
112.5084,394.4
112.605,175.7
112.6329,103.1
112.6555,87.3
112.6825,517
112.6997,381.9
112.719,162.8
112.7748,70
112.7762,261.2
112.7842,296.2
112.7914,73.9
112.7973,373.3
112.8061,198.9
112.8082,308.8
112.8125,218.3
112.8296,154.2
112.8413,76.3
112.8613,184.4
112.8862,220.6
112.8956,373322.4
112.8971,374.1
112.9468,85.6
112.9684,153.5
112.9757,19.2
112.9833,274
112.9846,250
112.9858,215.3
113.1072,1378.5
113.1089,113.2
113.1748,85.2
113.1778,91.6
113.1847,102.5
113.216,174.5
113.2433,74.7
113.2675,110.4
113.295,854.3
113.3159,290.8
113.3403,209
113.3773,104.4
113.4078,19.5
113.444,737
113.4507,119.7
113.4511,75.9
113.4562,817.1
113.4771,139.4
113.5071,189.3
113.5251,285.5
113.5987,165.1
113.6104,225.1
113.6836,107.3
113.6887,21.1
113.704,75.3
113.7167,99.6
113.7599,240.7
113.7974,294.8
113.8168,307.9
113.8603,95.9
113.9518,705.7
113.9716,209.2
113.9764,22.6
113.9957,77.6
114.0548,45487.1
114.066,633.5
114.0686,536.8
114.0709,71.1
114.1724,347.3
114.1929,262.7
114.1958,407.4
114.2137,416.3
114.2233,68.2
114.2305,286.7
114.251,21.6
114.2711,121.3
114.2816,16.5
114.2847,195.2
114.2861,284.6
114.2878,210.3
114.2907,163.5
114.2937,72.4
114.3361,79.6
114.3877,127.3
114.4052,84.1
114.4098,76.6
114.4272,93.4
114.4337,274.7
114.4983,685.8
114.5059,91.5
114.5182,144.1
114.5296,402
114.5829,360.5
114.6283,554.2
114.6603,90
114.7062,158.5
114.7164,407.5
114.7233,94.3
114.7307,18.9
114.7549,74.8
114.7893,218.2
114.7955,373.8
114.8036,641.3
114.8643,333.6
114.8926,117714.5
114.9168,579.8
114.9202,394.5
114.948,595.6
114.973,262.7
115.0531,97.5
115.0546,300.3
115.0581,106.7
115.0666,79.5
115.0887,110.9
115.1008,291
115.1882,76
115.1953,17.7
115.2402,76.4
115.2883,21.3
115.3117,329
115.3559,389.9
115.4003,155.4
115.4611,149
115.4631,122.7
115.4922,216.9
115.5045,380.5
115.5522,283.3
115.5578,114.6
115.5612,21
115.5686,164.2
115.6035,728.6
115.6141,313.3
115.6775,159.3
115.737,326.3
115.761,101.6
115.7623,83
115.7828,182.3
115.9236,605.1
115.9261,78.3
115.9481,314
115.9782,518.7
115.9792,501.7
115.9863,282.5
116.0081,750
116.0466,391.4
116.0684,103.3
116.0704,3672.5
116.0955,152.1
116.2365,17.6
116.2401,159
116.2424,82.5
116.2613,90
116.2998,85.7
116.3355,498.8
116.3485,669.9
116.4028,18.1
116.4052,72.3
116.4178,128.3
116.4247,69.2
116.4678,1005
116.5006,571.1
116.5453,92.5
116.6237,522.3
116.6518,97.3
116.7308,131.7
116.7512,17.1
116.7605,90.9
116.7898,177.3
116.8551,616.7
116.8861,213.9
116.8908,8815.7
116.9237,462.4
116.9474,18.3
116.9632,185.7
116.9858,1117.8
116.9906,66.7
117.0293,612
117.0697,63.7
117.0774,624.2
117.0826,567.5
117.1048,15.7
117.1463,16.6
117.1522,202.1
117.1626,121.4
117.1744,17.6
117.2241,172.2
117.2258,134
117.2387,273.9
117.2787,698
117.332,315.9
117.3416,20.9
117.3569,234.7
117.4055,66.9
117.4727,81.4
117.4769,67.7
117.5159,701.7
117.5745,403.7
117.5885,177.3
117.6151,390.7
117.6375,147.4
117.658,607.6
117.6871,194.6
117.6949,409.3
117.8428,89
117.847,642.1
117.8658,423.7
117.927,158.8
117.9457,29
117.9635,94.6
117.9921,155.3
117.995,22.6
118.0038,83.4
118.0081,284.8
118.0441,619.9
118.065,173
118.0715,207.8
118.0919,706.2
118.1013,176.3
118.1124,102.5
118.1564,668.4
118.1707,152.7
118.1752,305.9
118.1901,117.8
118.243,22.8
118.2534,322.7
118.2731,225.7
118.3766,88
118.3998,133.6
118.4212,215.4
118.4252,243.5
118.4494,171.9
118.4827,482.1
118.4954,660.2
118.5071,587
118.511,577.2
118.5232,120.8
118.5799,141.3
118.6065,201.2
118.6544,72.1
118.8004,18.8
118.8294,149.3
118.8493,17.7
118.8719,184.8
118.8843,293.1
118.8959,537.8
118.9021,106.5
118.9344,141.1
118.936,114.9
118.9425,599.5
118.9524,18.4
118.9637,18.4
118.9789,954.6
119.0038,327.7
119.0429,186.7
119.0492,114.6
119.0517,646.5
119.122,87.9
119.132,433.2
119.1541,163.9
119.1638,19.4
119.1758,18
119.2024,104.6
119.2691,444.8
119.2898,255.9
119.3227,87.8
119.3288,78.3
119.3779,178.2
119.3983,159.1
119.4083,666.3
119.4167,271.7
119.4373,19.9
119.5049,257.6
119.5781,87.6
119.5934,77.1
119.5981,95.1
119.7495,74
119.7783,265.8
119.8586,113.4
119.9229,23.8
119.9396,102.7
119.984,21.9
119.9905,755.7
120.0031,6453.8
120.0066,626.6
120.0304,546.1
120.0559,74.1
120.0807,14836.4
120.0882,466
120.0892,248.2
120.1136,123.9
120.1258,120.5
120.2662,92.5
120.3023,361.4
120.331,144.6
120.406,161.3
120.4412,16.3
120.4539,73.8
120.519,1102.8
120.5451,95.5
120.5566,300.6
120.5609,721.3
120.603,127.9
120.6404,363.1
120.651,70.2
120.6586,288.4
120.7065,476.1
120.718,239.9
120.7435,640.2
120.7499,220.7
120.8083,374.8
120.8511,290.7
120.9028,90.3
120.904,340.6
120.9171,113.6
120.9314,70.9
120.9427,20.4
120.9486,309.9
120.9794,52
120.9807,103.7
120.9977,115.7
121.0075,275.4
121.0108,588.6
121.0279,380.7
121.0394,29.5
121.0424,159.5
121.0822,67
121.1547,102.7
121.1662,74.1
121.1901,90.4
121.2114,78
121.2189,216.4
121.2726,474.5
121.2768,569
121.307,434
121.3085,88.4
121.3119,234.4
121.3132,18.4
121.3369,363.4
121.3688,782.9
121.4131,95.7
121.4418,268.8
121.4727,98.2
121.5229,450.4
121.5766,19.1
121.6279,114.6
121.6558,317.3
121.6601,155.9
121.7018,475.3
121.7549,379.2
121.7644,100.2
121.7883,98.3
121.8138,374.4
121.8163,629.4
121.8582,301.7
121.8816,644.6
121.9487,501.6
121.9543,545.6
121.9558,17
121.9782,285.1
122.0009,92.4
122.0155,225.4
122.0703,397.3
122.0725,20.9
122.0881,88.3
122.0946,220.2
122.1014,241.9
122.1417,159.3
122.1784,104.7
122.2284,563
122.2298,18.6
122.2389,274.9
122.2968,284.6
122.3536,98.5
122.4004,75.5
122.4198,63.6
122.4271,20.3
122.497,88.3
122.5116,73.5
122.5162,16.6
122.5368,174.1
122.5531,550.7
122.5566,171
122.5754,295.5
122.6018,353.7
122.6936,343.4
122.7087,97.3
122.7421,119.9
122.761,185.8
122.7655,87.6
122.7995,214
122.9244,15102.4
122.9293,81.1
122.9692,179.6
122.972,449
122.9738,246.8
123.0082,161.9
123.0687,148.1
123.0804,25.2
123.0959,211.6
123.1151,498.3
123.1164,17.9
123.1362,684
123.1429,190.6
123.1927,693.8
123.2001,159.4
123.2883,163.8
123.2995,447.3
123.3077,73.7
123.3245,166.4
123.3321,232.7
123.3935,153.2
123.4523,19
123.4876,90.5
123.4918,362.2
123.5845,77.7
123.6043,98.1
123.6246,110.9
123.6463,189.8
123.738,155.4
123.8341,95.8
123.8987,457.6
124.0064,585
124.0103,160.1
124.0173,323.3
124.0434,116.8
124.0556,115.4
124.0607,71
124.0655,849.7
124.1029,466.8
124.1209,269.6
124.1343,89.7
124.1842,226.3
124.2126,70
124.2179,304.3
124.232,189.5
124.2403,110.3
124.2461,120
124.2528,718.4
124.2734,164.7
124.2916,364
124.3149,112.8
124.3919,126.1
124.5314,20.4
124.5519,140.9
124.5539,365.6
124.6125,200
124.7156,332.8
124.7193,358.7
124.7255,648.2
124.726,655.3
124.727,887.6
124.7555,460.3
124.7566,360.8
124.7779,124.5
124.7835,1240.7
124.8034,251.4
124.816,84
124.8384,658.2
124.8674,436.1
124.9227,935
124.925,234.2
124.9272,75.1
124.984,220.7
124.9997,4555.1
125.0054,929.7
125.0212,92.1
125.0387,242
125.0597,22.4
125.0813,91.3
125.096,180.9
125.1,18
125.1189,632.3
125.1839,87.4
125.2586,279.9
125.2872,656.3
125.4198,273.5
125.4499,690.6
125.4766,281.7
125.5204,683.4
125.618,86
125.6264,118.3
125.674,70.4
125.7075,19.1
125.8578,163.9
125.9584,97.5
125.9657,221.9
125.9775,485.2
125.9792,744.3
125.9807,16.4
125.9999,169.2
126.0036,612
126.0122,388.4
126.0571,18.2
126.0633,19.1
126.088,103.9
126.0964,106.9
126.1072,103.7
126.1092,21.6
126.1591,367.5
126.2051,388.4
126.2211,80.8
126.2315,685
126.249,338.8
126.2618,603.6
126.2646,183.1
126.2735,502.2
126.2776,288.5
126.3165,87.9
126.3643,82.5
126.3794,525.2
126.3916,558.8
126.406,353.3
126.4641,504.8
126.5306,103.7
126.5689,619.4
126.6153,20.2
126.6691,100.8
126.6956,18.2
126.7427,389
126.7578,111.6
126.7596,451.6
126.8318,472.5
126.8364,272
126.8568,19.6
126.8683,250.7
126.8809,528.3
126.8828,113.6
126.8866,86.1
126.9159,270.5
126.9229,421.6
126.9542,151.4
126.9554,17.6
126.9659,338.4
127.0164,191.9
127.0459,203.6
127.0477,287.2
127.0808,133.3
127.1108,264.8
127.229,186.7
127.25,79.5
127.2637,508.6
127.3029,81.8
127.3234,234.3
127.3305,388.8
127.3409,90.5
127.3762,102.1
127.3787,18
127.4178,90.4
127.4354,417.8
127.4698,155.2
127.4808,91
127.4849,475
127.5566,542.2
127.6194,128.2
127.6962,230.4
127.7451,653.9
127.7652,140.6
127.8708,557.3
127.9089,95.5
127.9268,102.3
127.9347,804.7
127.9682,179.3
127.9793,63.8
128.0156,42.5
128.0648,120.9
128.0779,18.3
128.1034,678.3
128.138,223.6
128.1392,70.4
128.1598,130.7
128.2015,325
128.2824,103
128.3005,243
128.3655,324.2
128.404,588.4
128.4244,106.1
128.4271,176.7
128.4331,88
128.4585,551.7
128.4981,79
128.5449,524.2
128.5549,211.9
128.5737,447
128.5914,179.3
128.6372,757.5
128.6611,414.4
128.8484,644.3
128.8636,282.5
128.8741,189.2
128.8907,86.4
128.9083,697.3
128.9168,451.1
128.923,18.7
128.9459,87.2
128.9637,446.5
128.9815,188.8
128.9982,826.2
129.0009,17.7
129.0076,128.6
129.0185,866
129.0319,647.7
129.0425,605.5
129.0489,229.5
129.0631,75.5
129.102,880.8
129.1083,704.9
129.1613,270.4
129.2085,738.7
129.2528,311.7
129.2689,100.1
129.2759,725.7
129.3014,475.6
129.3347,108.4
129.3482,338.9
129.3616,19
129.398,269
129.4039,18.8
129.4303,475.6
129.4552,532.7
129.4943,429.4
129.5037,110.2
129.5102,381
129.5145,532.2
129.5227,20.7
129.616,20.3
129.6217,468.6
129.664,444.3
129.6723,137
129.6773,423.8
129.682,97.4
129.6975,260.9
129.7025,246.7
129.7229,437.4
129.78,123.4
129.8157,126
129.82,20.1
129.8451,17.1
129.953,142.6
129.9585,199.4
129.9932,97.1
129.9949,116.2
130.0203,16.9
130.0498,11445.7
130.1321,70.5
130.1341,77.2
130.2073,80
130.2946,456
130.3319,89.6
130.3674,141.9
130.3787,18.8
130.4126,18.5
130.4179,134
130.4456,153.5
130.4596,351.3
130.4738,22.4
130.4759,23
130.4801,184.7
130.4881,245.1
130.5134,76.4
130.6525,131.9
130.6765,94.5
130.7037,157.7
130.7077,477.2
130.7168,231.3
130.7209,245.7
130.73,22.4
130.7369,211.4
130.7769,339
130.7918,20.4
130.8161,226.1
130.8194,627.7
130.8314,74.7
130.8688,74.6
130.926,636.7
130.9537,82.6
130.964,469.9
130.9789,89.2
131,71.5
131.0327,82.4
131.0826,81.2
131.1164,152.1
131.1509,803.5
131.1658,120.5
131.1742,106.4
131.2207,262
131.3027,145.1
131.3414,379.4
131.3442,494.5
131.3908,347.8
131.4138,92.9
131.4192,127.1
131.438,423.5
131.4699,439.6
131.4906,417.8
131.5001,78
131.5386,80.9
131.5482,194.1
131.5521,318.2
131.5633,104.7
131.6054,290.3
131.6083,671.8
131.6121,145.6
131.6242,276.6
131.7114,101.6
131.7151,402.7
131.804,91.3
131.8198,79.5
131.8436,17.9
131.8456,80.7
131.8498,488.2
131.8674,655.9
131.8801,69.1
131.9375,470.4
131.9802,160.9
131.985,151.7
132.0003,323.3
132.0031,32139.2
132.0204,408.8
132.0271,171.5
132.0606,122.1
132.0654,85648.4
132.0765,442.1
132.0872,295.7
132.2121,306.6
132.3009,107.5
132.3434,17.8
132.3558,487.2
132.4195,744
132.4452,189.3
132.4498,409.5
132.4748,97.1
132.5476,719.5
132.596,19.3
132.6485,20.7
132.6585,87.6
132.6687,103.5
132.6784,127.8
132.6875,329.2
132.6992,477.4
132.7103,92
132.7194,871.6
132.7228,334.4
132.7331,76.3
132.7594,719.4
132.8116,384.2
132.8181,617.2
132.9026,21.3
132.9315,295.3
132.9529,388.2
132.9581,771.1
132.9604,90.2
132.963,86.7
132.9694,41.8
132.9871,880.5
132.9963,88.3
133.0575,362
133.0642,84.4
133.0688,1747.8
133.0711,356.6
133.0748,639.3
133.0835,149.2
133.097,20051.5
133.1073,501.5
133.1125,522.8
133.1199,600.4
133.1898,295
133.2104,170.1
133.3592,286.8
133.3737,19
133.3857,407.7
133.4478,597.8
133.4574,187.3
133.4911,292.8
133.6141,114.8
133.6332,692
133.646,88.1
133.6523,17
133.6621,254.6
133.6823,328.4
133.6912,856.3
133.6957,136.7
133.7003,162.3
133.7159,208.9
133.8261,90.2
133.8921,18.4
133.9003,159
133.938,19.3
133.9521,85.2
133.9708,467
133.9812,24.9
134.0187,12383.6
134.0733,304.9
134.0886,331.4
134.1437,73.2
134.1903,89.5
134.2251,659.2
134.2855,170
134.2877,1207.5
134.2963,196.6
134.3057,421.4
134.3389,701.8
134.3572,299.9
134.3719,327.2
134.3802,286.4
134.4419,18.3
134.4729,732
134.6103,162.6
134.6241,233.3
134.726,309.3
134.7642,19.5
134.777,181.4
134.8767,271.4
134.9278,373.4
134.9508,95.1
134.9891,101.3
134.9964,59.1
135.0028,82495.4
135.0046,1008.7
135.0204,590.3
135.0263,198.2
135.0478,23
135.0894,114.6
135.1166,41.7
135.1229,83.3
135.1836,469.2
135.1965,614.5
135.2991,140.2
135.366,659.6
135.4421,434.9
135.5165,732.9
135.5216,80
135.5518,704
135.56,20.1
135.6108,216.7
135.6558,181.3
135.6593,320.5
135.6956,123.1
135.715,134.5
135.7322,92.4
135.7367,133.2
135.7884,93.9
135.8033,90.1
135.8299,307.9
135.8467,314.7
135.8661,178.4
135.9079,363.6
135.9127,17.5
135.9145,145.9
135.9253,654.3
135.9771,2364.1
136.0037,18.6
136.0156,892
136.0209,106.8
136.0463,753.4
136.048,5237.2
136.0756,8049.8
136.1227,776.6
136.1857,78.2
136.1944,114.8
136.2129,321.4
136.2451,162
136.2692,321.9
136.2833,599.9
136.3969,323.3
136.4111,669.1
136.4398,605.9
136.4901,91.4
136.4959,16.5
136.5016,193.6
136.5325,722.2
136.5951,323.2
136.608,244.8
136.6167,21.5
136.6578,274.6
136.6979,87.1
136.7618,160.5
136.8179,639.1
136.8409,93.4
136.8553,83.5
136.8704,166.7
136.9309,1376.9
136.9531,181.9
136.9894,96.7
137.0113,566.5
137.0308,731
137.0608,855.9
137.0788,507.2
137.0803,148.4
137.1494,89.5
137.1873,113.2
137.1968,171.6
137.2032,132
137.23,583.3
137.2335,145.9
137.2379,146.1
137.3473,573.9
137.4356,601.9
137.4789,169.9
137.5051,112.8
137.5843,151.4
137.6106,97.9
137.6264,250.2
137.7274,460.8
137.7386,262.1
137.7463,559.5
137.7677,103.3
137.7765,704.2
137.787,92.6
137.8464,85.8
137.9165,111.1
137.9376,522.4
137.9479,518.8
137.9787,601.6
137.9949,418.6
138.0189,93.5
138.0215,499.3
138.0422,553.2
138.0525,6563.7
138.135,20.1
138.1369,546
138.1449,120.8
138.1559,540.6
138.2022,76.3
138.2063,601.7
138.2204,93.3
138.3514,448.7
138.3793,742.1
138.4161,70.8
138.4222,449.3
138.4359,92.3
138.5104,69.4
138.5433,118.3
138.569,565.6
138.5751,111.3
138.5914,18.8
138.6161,89.6
138.6496,204.7
138.6616,590.4
138.7188,88.6
138.828,75.7
138.8469,619
138.8812,112.1
138.8845,359.3
138.9064,2308.5
138.9115,17.9
138.9939,509.3
139.0083,75.1
139.034,21.3
139.0633,22.1
139.0998,197.8
139.1336,108.7
139.1589,89.9
139.1656,447.5
139.1872,164.1
139.2058,112
139.2598,118.5
139.2972,217.7
139.4518,18.5
139.49,21.1
139.513,204.3
139.5269,120.4
139.5391,720.5
139.5606,106.5
139.5726,75.7
139.6061,486.9
139.7708,742.7
139.8207,100.8
139.8346,442.4
139.8606,262.5
139.9342,19.2
139.9582,160
140.0164,3627.8
140.0681,2712.7
140.0758,157.2
140.0965,165.1
140.1133,165.1
140.1325,151.4
140.1406,104.2
140.2384,162.2
140.262,69.2
140.2644,824.2
140.3241,297.7
140.3364,138.8
140.3621,389.3
140.3852,398.9
140.3927,334.9
140.511,406
140.5468,191.6
140.5842,204.5
140.6216,157.7
140.6236,576.9
140.6319,168.6
140.6574,495.4
140.7205,651.7
140.725,255.5
140.7687,93.6
140.8302,666.4
140.8768,19.6
140.9034,1080.9
140.9721,811.6
140.981,95.1
140.9923,85
140.998,103.9
141.0004,20467.1
141.0063,171.2
141.0198,176.9
141.0335,105.2
141.092,637.7
141.0969,337.5
141.1134,214.9
141.1333,82
141.1377,135.6
141.2425,573
141.2926,108.8
141.2949,299.5
141.3096,110.5
141.3572,118.5
141.4157,125.9
141.4311,704.6
141.4752,81.9
141.5507,731.3
141.6099,470.5
141.6224,101.7
141.6333,704
141.6676,62.9
141.6832,114.7
141.7478,106.8
141.8379,364.2
141.8635,408.2
141.8691,638.3
141.8837,507.4
141.9546,76.1
141.982,212.6
141.9949,226.5
142.0037,361.2
142.0122,68
142.0152,22.6
142.0175,914.2
142.0236,440
142.0702,330
142.1226,332
142.1463,301.1
142.1574,162.1
142.1597,705.9
142.1697,198.8
142.1822,477.6
142.1893,508.2
142.1919,689
142.228,79.1
142.2334,19.3
142.2698,19.2
142.312,172.2
142.3883,415
142.4077,648.4
142.4815,120.8
142.5588,86.6
142.5716,221.9
142.5885,544
142.6025,143.5
142.6221,452.9
142.6511,77.7
142.6574,118.8
142.7432,20.5
142.7467,88.9
142.8382,397.1
142.8433,304.7
142.8478,96.8
142.8546,84.6
142.8808,20.9
142.917,151.9
142.9481,449.7
142.996,458.5
143.0026,357.2
143.0192,768.9
143.0215,120.6
143.0415,93.8
143.0812,182.2
143.1444,305.1
143.1641,167
143.173,112.2
143.1928,378.4
143.2234,91.3
143.2248,622.3
143.238,190.1
143.2906,17.8
143.3084,18.9
143.3133,204.5
143.3227,107
143.3492,341.4
143.3541,74
143.368,337.8
143.3808,193.7
143.4212,154
143.4485,95.4
143.4556,139.9
143.4929,524.3
143.5346,169.3
143.6245,287.3
143.6907,21.7
143.7225,315.1
143.7425,99.4
143.9407,353.5
143.9956,368.3
144.0109,716
144.0332,19.4
144.0501,678.2
144.1015,118.7
144.1801,573.8
144.2445,671.5
144.2958,331.3
144.3444,94.4
144.4081,135.8
144.4447,297.1
144.4807,557.6
144.5012,449.8
144.5767,146.1
144.7065,486.8
144.7298,551.4
144.7354,130.3
144.83,137.5
144.8689,201.3
144.8875,596.8
144.8935,86.6
144.9284,168.1
144.9575,18.5
145.0004,398.8
145.0137,19.8
145.0583,300.7
145.0684,78.4
145.0761,124.1
145.1095,132.9
145.1101,132.2
145.1234,96.2
145.183,495
145.211,717
145.263,222.1
145.2865,272.2
145.3303,844.9
145.3461,625.9
145.3887,68.5
145.421,551.7
145.4229,269
145.4961,18.7
145.5498,19.8
145.5926,96.1
145.6174,571.3
145.6283,217.1
145.6357,18.6
145.6613,195.4
145.6828,172.1
145.8208,171.8
145.8347,179.5
145.8699,16.4
145.8874,118.1
145.986,17.9
145.9897,941
145.9916,478.1
145.9936,135.1
145.9964,74
146.001,985.9
146.0029,435.4
146.0051,317.1
146.0124,2004
146.0188,21217.6
146.0262,128.3
146.0481,390.9
146.0564,446.8
146.0917,619.3
146.114,618.5
146.1568,199.8
146.2167,520.1
146.3016,19
146.33,84.2
146.3616,301.8
146.3639,110
146.3903,79.3
146.4256,246.2
146.4652,461.2
146.5707,20.1
146.5841,174
146.6721,760.2
146.7172,166.5
146.7497,191.9
146.7627,92.9
146.7653,731.4
146.7776,380.3
146.7854,346.8
146.8468,613.7
146.8596,664.3
146.882,314.1
146.9051,34.5
146.9316,396.8
146.9382,126.8
146.9604,298.8
146.9743,91.1
146.9817,88208
146.9838,23
146.9978,152.4
147.0055,758.3
147.0231,19.5
147.0348,91.9
147.0764,61646.9
147.0819,517.5
147.1127,43527.4
147.1168,24
147.1246,302.3
147.1366,219
147.1381,137.5
147.1646,210.8
147.1696,636.6
147.3005,231.1
147.3651,115.7
147.5041,740.4
147.5133,340.2
147.5288,543.8
147.5658,327.7
147.6048,381
147.6478,353.5
147.6926,514.1
147.6973,303.8
147.7011,310
147.7426,207.9
147.8401,16.4
147.9034,121.4
147.9129,137.4
147.9755,600.1
147.9807,16.6
147.9921,96.5
148.0035,65.7
148.0497,117.1
148.1163,353.9
148.1575,171.7
148.1631,125
148.1891,99.2
148.2478,170.1
148.2559,81.5
148.2645,19.3
148.3019,173
148.419,218.7
148.4524,101.2
148.5072,106.6
148.5322,1064.3
148.5444,640
148.5879,18.2
148.6191,240.6
148.6466,310.2
148.6748,81.5
148.6883,132.1
148.7215,600.4
148.7242,18.4
148.7657,212.5
148.7674,581.4
148.7786,358.1
148.7871,447.3
148.8243,17.7
148.8499,70.1
148.9204,104.7
148.9571,84.5
148.961,1807.7
148.9887,102.1
149.0023,29.3
149.012,23.5
149.0184,348.3
149.0233,5029.5
149.0445,102.9
149.0877,18.9
149.0909,311.2
149.1265,214.3
149.1807,261.1
149.223,298.4
149.2355,185.6
149.2395,360.3
149.2667,597.1
149.3597,113.6
149.3829,105.7
149.5485,736.1
149.5564,17.1
149.5733,270
149.726,204.8
149.936,137.6
149.9524,581.7
149.955,16.4
149.9871,62.6
149.9928,7197.7
150.0053,550.4
150.0138,7211.6
150.0205,358.3
150.0243,295.5
150.0264,23.8
150.0367,334.4
150.0691,17.3
150.1039,139.7
150.1067,19.1
150.1466,143.2
150.1477,171.5
150.17,983.5
150.1794,175.9
150.1957,474.1
150.2468,128.8
150.3123,171.4
150.3342,288.7
150.3483,597.7
150.3581,227.1
150.374,728.4
150.3855,463
150.4245,81.6
150.5537,17.9
150.5744,647.6
150.6868,332.4
150.6997,81.2
150.7198,25.4
150.7744,81.1
150.7798,77.7
150.7868,504.3
150.9225,76.8
150.9493,117.4
150.9687,71.3
150.9768,51653.1
150.984,3638.1
150.9935,173.8
151.016,360.2
151.0478,5008.8
151.0662,103.4
151.0784,93.6
151.0938,87.5
151.0967,359.5
151.115,88.9
151.1987,172.3
151.2537,484.6
151.2697,107.1
151.2958,81.2
151.336,658.4
151.4016,132.5
151.425,19.3
151.5249,119
151.5674,456.3
151.5793,148.6
151.6273,139.9
151.6573,155.9
151.6717,81.1
151.6969,223.7
151.7082,694.5
151.7366,82.2
151.7729,85.9
151.7967,79.1
151.8041,101.2
151.822,85.5
151.8816,514.9
151.9553,147.8
151.9802,353.7
151.9873,120.1
152.0078,410.7
152.022,8091.5
152.0318,1979.3
152.0898,90.3
152.1121,114.7
152.1209,17.6
152.1286,976.7
152.1477,687.4
152.1665,105
152.3091,86.4
152.3157,323.3
152.3271,111.8
152.3318,226.2
152.3359,527.2
152.341,18.3
152.4983,22.1
152.5072,286.1
152.5094,118.7
152.526,112.5
152.5735,308.9
152.5847,86.7
152.6251,427.4
152.6349,301.2
152.7237,73.3
152.7696,524
152.8065,420.2
152.8156,71
152.8955,217.4
152.9749,3055.3
152.9856,168.6
152.9998,24.4
153.0097,651.8
153.0595,17.6
153.0671,110.6
153.0767,212.9
153.0909,225.2
153.1482,196.5
153.1553,117.5
153.2582,121
153.2815,18.3
153.3426,162.5
153.3764,73.9
153.3783,211.2
153.5004,211.1
153.6192,162.5
153.6905,146.2
153.73,199.9
153.8196,18.2
153.8222,74.1
153.8744,624.5
153.9437,19.5
153.9945,376.2
154.0112,605.6
154.0202,721.7
154.0264,447.7
154.0407,172.3
154.0587,666.2
154.0959,158.7
154.1414,92.7
154.1988,365.8
154.2253,948.3
154.2655,232.7
154.2705,698.9
154.3191,80.5
154.3671,81.9
154.4104,449.1
154.4505,802.9
154.456,327.7
154.4958,513.2
154.5629,19.4
154.5793,187
154.6603,18.4
154.701,525.3
154.7155,674
154.7227,389.1
154.7943,305.3
154.8253,295.4
154.8802,347.4
154.9074,85.1
154.9494,143
154.9691,963
154.9811,299.9
154.9861,22
155.0203,17.9
155.0427,1218.6
155.0539,3117.9
155.1834,447.4
155.1959,713.7
155.2456,121.6
155.2621,425.5
155.2828,101.6
155.3175,219
155.3255,576.9
155.3556,15.8
155.377,730.2
155.3812,23.7
155.4602,281.8
155.5332,153.9
155.5363,175.8
155.5847,394.7
155.5941,101.1
155.6197,18.1
155.6565,584.3
155.7002,16.4
155.7029,18.5
155.7101,643
155.7178,468.7
155.8558,149.8
155.8683,75.7
155.8865,392.2
155.8926,182.2
155.9375,124.2
155.9719,16.4
156.0106,80.3
156.0159,298.8
156.0196,170
156.0268,94.8
156.0305,120.2
156.0331,185.7
156.0421,1715.6
156.0767,67595.1
156.1183,323.7
156.1597,124.5
156.18,605.8
156.1965,80.4
156.1999,312.5
156.3028,274.9
156.4089,774.7
156.435,675.3
156.4454,18.7
156.5,17.5
156.5073,76.6
156.528,170.3
156.5649,327.3
156.599,127.5
156.6915,116.4
156.7102,18.7
156.7148,102
156.7257,789.7
156.7767,153.1
156.9193,176.5
156.9806,145.5
157.0058,607
157.0204,651.4
157.0764,302.8
157.08,1276
157.0972,26.5
157.1229,734.8
157.153,209.9
157.1583,89.5
157.1936,19.2
157.2002,97.8
157.2072,90.5
157.2134,169
157.2313,564.6
157.239,113.9
157.3084,390.5
157.3828,713.2
157.4063,376.9
157.4963,208.4
157.5677,17.3
157.5903,736.2
157.6198,89.5
157.7129,133.8
157.7307,105.5
157.8401,1173.3
157.8611,642.5
157.9061,76.7
157.9358,17.4
157.9478,876.1
157.9732,284.6
157.9801,668.1
158.0125,342.3
158.027,4414.5
158.041,18.2
158.1199,231.4
158.1249,179.6
158.1927,165
158.2576,285
158.3348,86
158.4407,167.5
158.4671,164.9
158.4744,237.6
158.497,73.4
158.5002,117.7
158.5589,97.1
158.6321,108.5
158.7464,188.8
158.7536,294.3
158.762,631.5
158.7677,104.7
158.8013,288.2
158.847,326.2
158.85,197.3
158.8581,140.3
158.8851,103
158.9323,94.6
158.9478,708.1
158.964,7372.8
158.9737,17
158.9965,6113
159.0061,86.6
159.0152,598.5
159.0304,89.1
159.0568,267.9
159.0622,144.9
159.0767,291.6
159.1177,643
159.1493,638.6
159.2241,445.4
159.2261,343.3
159.2283,144.2
159.256,574.9
159.2584,175.8
159.2636,379.4
159.3329,236.4
159.3739,81.9
159.4383,20.2
159.5005,114.5
159.5909,69.8
159.5944,580.5
159.6056,18.9
159.6391,81
159.6713,472.4
159.6752,211.1
159.6915,216.2
159.7032,339.4
159.7532,223.8
159.7826,98
159.8279,18.2
159.8752,189
159.8971,173.2
159.9118,690.1
159.9355,193.9
159.9662,473.1
160.0073,323.7
160.0227,82.8
160.0304,18.1
160.0345,11338.7
160.0604,80598.1
160.0953,125.9
160.1214,115
160.1404,373.7
160.2024,228.2
160.216,561
160.2801,592.7
160.3123,137.6
160.3714,308.2
160.3773,114.9
160.4438,162.4
160.4705,230.9
160.4877,554.4
160.5051,370.9
160.5244,93
160.5907,147.1
160.6877,681.6
160.7616,421.8
160.7948,84.8
160.8289,18.8
160.88,619.9
160.9207,290.6
160.926,406.8
160.9306,788.3
160.9335,76.8
160.964,87.6
160.9762,105.7
160.9784,121.1
160.9921,107
161.0184,399.6
161.0501,783.9
161.0638,2848.6
161.1288,161.7
161.1311,19.6
161.2069,358.8
161.2355,203.2
161.2469,134.2
161.2486,379.9
161.2735,100.6
161.293,85.7
161.3152,17.8
161.421,133.3
161.5108,110.9
161.5376,78.2
161.5451,190.8
161.6044,261.4
161.6656,380.6
161.8146,190.1
161.8686,70.8
161.8756,102.5
161.9359,173.9
161.9805,220.5
161.993,113.3
162.0292,18.7
162.0501,11770.7
162.1146,387.4
162.1533,105.6
162.2226,421
162.2368,84
162.308,75.2
162.3312,582.1
162.3415,765.3
162.364,82.3
162.4214,161.1
162.4577,85.2
162.5955,576.7
162.6132,76.8
162.6984,18.9
162.7181,308.5
162.7235,696
162.7341,21.5
162.7452,407.5
162.8386,20.9
162.8777,542.4
162.895,462
162.9428,326.8
162.9557,3662.7
162.9886,563.3
162.9925,19.6
163.0154,1538.6
163.0203,266.7
163.0821,258.9
163.1034,266.7
163.164,516.5
163.1983,476.4
163.2031,786.1
163.2583,331.2
163.3031,186.9
163.3057,205.8
163.3954,83.3
163.5132,77.9
163.5192,88.2
163.5332,283.7
163.5938,110.4
163.5988,166.1
163.6561,20.6
163.6683,134.6
163.6709,157.5
163.6761,541.6
163.6799,167.5
163.6828,695.6
163.7194,101.4
163.732,86.2
163.7689,357.7
163.8319,90.3
163.8538,16.9
163.8855,23.6
163.9015,17.6
163.9061,187.2
163.9455,415.3
163.981,214.3
164.0135,485.9
164.0265,24.1
164.0294,19310.3
164.0755,92.2
164.0875,109.9
164.2497,746.2
164.296,18.4
164.3211,291.2
164.3415,90.3
164.348,240.1
164.3626,391.9
164.3658,94.9
164.4519,689.5
164.454,16.6
164.483,604.3
164.5194,445.6
164.5534,359.4
164.5691,574.3
164.5875,324.6
164.6002,122
164.6303,93.1
164.6462,167.4
164.7156,659.9
164.747,101.4
164.7918,336
164.8039,260.6
164.8362,408.7
164.8788,582.9
164.9156,44.1
164.9181,128.1
164.9206,2977.2
164.93,13023.6
164.9352,384.2
164.9845,68.5
164.9922,577.3
164.9958,50.5
164.9996,504.3
165.1383,107.3
165.1556,482.4
165.2041,290.1
165.2739,389.6
165.2889,314
165.3031,414.1
165.3184,96.8
165.3639,143.6
165.3952,76.8
165.4713,78.8
165.4773,172.7
165.5615,461.2
165.576,220.6
165.617,284.6
165.7573,253.7
165.7668,176.6
165.7857,80.4
165.8,163
165.8886,79.8
165.9042,20.8
165.907,16.8
165.956,210.2
165.9642,766.5
165.9668,479.8
165.979,1728.7
165.9876,4180.2
165.995,1168.3
166.0359,103.9
166.0495,199.6
166.0649,422.8
166.2653,187.6
166.2697,317.7
166.2833,241.3
166.4121,163.3
166.4192,199.2
166.5206,79.8
166.5289,83.9
166.5672,514.3
166.6232,91.3
166.7106,154.6
166.8016,84.5
166.8056,707.9
166.8108,128.4
166.8468,315.4
166.8618,116.4
166.9508,18188.2
166.9955,26.3
166.9983,45.8
167.0001,28.2
167.0104,18.3
167.0218,9319.5
167.0252,158.5
167.0355,515.7
167.2334,290.2
167.2785,320.6
167.2953,493.7
167.4106,492.1
167.4377,93.3
167.4423,289.9
167.4528,249.3
167.4686,162.8
167.483,16.2
167.4865,177.7
167.5476,124.7
167.5673,167.2
167.6075,80.9
167.6896,83.2
167.7415,688.4
167.7478,92.7
167.7535,169.6
167.7851,473.9
167.8372,263.3
167.8825,486.6
167.8967,160.4
167.9946,2280.3
168.011,668.5
168.0518,621.6
168.0645,420.6
168.1355,283.2
168.349,101.2
168.3976,172.2
168.4074,475.7
168.4961,456.8
168.5311,278.3
168.5396,327.5
168.5699,162.1
168.6308,447.3
168.6498,156.6
168.661,155.4
168.7761,694.3
168.779,81.4
168.7984,19.1
168.8191,125.3
168.89,449.4
168.9373,42.6
168.949,1189.4
168.974,730.1
168.9775,81.2
169.0434,287.5
169.0584,77577.8
169.0649,98.9
169.0705,158.2
169.092,93.3
169.0947,4007.2
169.1074,316.5
169.1102,394.7
169.1506,69.3
169.1603,18.6
169.1716,95.7
169.2215,148.1
169.2564,401.3
169.2847,458.3
169.3429,73.3
169.381,250.1
169.3854,18.5
169.3954,128.9
169.4361,162.8
169.45,299.1
169.4537,85.2
169.4858,483.7
169.5136,190.7
169.7563,187.9
169.7896,215
169.8287,17.1
169.859,689.8
169.894,307.5
169.9485,605.9
169.9557,19.8
169.9859,858.9
169.9937,120.2
170.029,104.2
170.0326,1861.7
170.051,194.9
170.062,806.3
170.0924,1805.2
170.1078,312.6
170.1501,173.2
170.1903,20.2
170.193,427.7
170.3163,665.4
170.4137,78.5
170.4441,211.9
170.4858,474.4
170.4885,296.7
170.5108,148.6
170.6244,74.9
170.6737,511.4
170.6958,256.6
170.7067,160.6
170.715,259.7
170.7446,87.6
170.7523,113.7
170.7617,360.5
170.7816,19.8
170.7855,314.8
170.8544,4346.9
170.8946,827.3
170.9141,121.3
170.9248,167.2
170.9982,30.8
171.0169,2473.1
171.0222,185.7
171.0281,418.4
171.0945,20.9
171.1804,16.8
171.2806,161.5
171.3237,288.9
171.3293,178.8
171.3565,143.3
171.4,119.7
171.445,67.7
171.4572,114.5
171.4842,94.4
171.5072,18.4
171.5113,209.1
171.5234,103.7
171.5273,179.6
171.5322,18.3
171.5452,84.5
171.5619,348.2
171.5647,483.1
171.6024,814.9
171.63,165
171.7454,18.3
171.8829,73.6
171.8995,175.8
171.9559,79.5
172.0477,167.4
172.0854,310.5
172.1081,18.6
172.1504,321.4
172.161,547.9
172.1646,726.7
172.1881,20.8
172.239,420.5
172.2613,454.1
172.2846,519.3
172.338,287.2
172.4016,345.2
172.4169,98.9
172.4296,428.3
172.5295,84.9
172.5881,20.9
172.6333,19
172.7101,83.3
172.8062,553.7
172.8117,19
172.8392,401.8
172.8514,1438.2
172.8854,113
172.8921,540.6
172.8992,162.1
172.9078,91.8
172.9343,85.2
172.9666,652.5
172.9735,197.4
173.0267,275.9
173.029,434.7
173.0383,425.4
173.132,349.1
173.1397,86
173.1775,422.7
173.2306,18.3
173.2467,631.5
173.3512,79.7
173.3603,441.9
173.4422,19.6
173.5966,109.4
173.6402,80.4
173.6478,82.9
173.655,17.5
173.7259,471.5
173.7319,189.6
173.7425,152.1
173.7509,184.5
173.7691,516.3
173.8172,186.2
173.8649,16.9
173.867,445.5
173.8697,56.4
173.8775,96.9
173.9124,421.9
173.938,332.8
173.9939,561.2
173.9972,368.5
174.0091,195.1
174.0305,27
174.0502,327
174.0545,110.9
174.1075,88.6
174.1201,325.5
174.167,79.5
174.2981,82.7
174.3455,169.8
174.5397,116.2
174.5535,121.9
174.5925,85.2
174.6081,90
174.6515,115.7
174.6728,625.1
174.7016,84.3
174.722,115
174.8683,370.1
174.8906,797.2
174.9002,134.1
174.9037,176
174.9054,93.5
174.9381,4570.9
174.9687,37.8
175.0014,91
175.0342,8353
175.0455,2668
175.0576,407.1
175.1033,157.7
175.1076,270.2
175.119,173294.1
175.1543,303.1
175.2794,78
175.3005,192
175.3843,339
175.4038,155.4
175.4336,284.6
175.4472,131.6
175.5159,617.9
175.5837,98.8
175.621,172.5
175.633,535.5
175.6369,715.1
175.6457,16.8
175.6532,481.6
175.7137,641.1
175.7795,69.4
175.7936,19
175.8337,614.8
175.8471,99.7
175.8725,608.6
175.8908,89
175.9032,343.6
175.9077,405.9
176.0006,74.1
176.0085,4115.1
176.0601,121.4
176.0659,22845.8
176.0979,111.3
176.103,2686
176.1164,371.7
176.1224,7382.1
176.1768,280.7
176.2211,179.5
176.243,89.6
176.322,312.3
176.3637,68.4
176.4345,349.1
176.4365,156.8
176.5323,329.9
176.5548,70.6
176.5569,144.1
176.6491,104.6
176.6678,183.4
176.7574,157
176.7626,104.8
176.7792,79.6
176.8208,699.2
176.8454,159.4
176.86,99.5
176.8898,21.2
176.8932,22.8
176.9121,83.8
176.9332,88.3
176.9833,18.7
176.9873,383.9
176.9925,512
177.0069,23.2
177.0248,6221.7
177.0611,3405.2
177.087,157.4
177.185,180.2
177.1954,106.3
177.2777,541.7
177.2954,18.1
177.3389,436.7
177.7072,496.8
177.745,300.8
177.8175,127.5
177.8597,321.5
177.8685,372.8
177.8972,490.5
177.9149,75.4
177.9479,129.4
177.9593,220.4
177.9713,150.5
177.9915,19
177.9947,23.1
178.0038,366.1
178.0087,7693
178.0161,84.9
178.0241,6989.5
178.0587,7803.3
178.0941,85.9
178.2013,609.5
178.233,124.5
178.3077,77.7
178.3388,417.4
178.378,315.4
178.589,73.3
178.6357,138.2
178.704,145.7
178.7982,99.5
178.893,22.9
178.9062,514.8
178.9386,135.9
178.9447,563.9
178.9484,223
179.0004,38.5
179.0029,101.7
179.0061,609.7
179.0364,326.2
179.0492,153.9
179.0526,390.7
179.157,195.8
179.1613,89.9
179.3826,332.5
179.5147,140.1
179.5452,188.2
179.5639,840.3
179.7379,205.5
179.849,327.9
179.8566,191.8
179.9105,591.7
179.9611,140.5
179.9976,457.8
180.0034,11933.3
180.0106,178.8
180.0301,243.3
180.0678,196.4
180.0832,20.4
180.1055,115.4
180.153,157.2
180.1631,829.7
180.1682,484.4
180.1956,262.9
180.2189,106.3
180.3163,112.2
180.3765,16
180.4215,825.2
180.5419,116.5
180.5546,132.3
180.5657,155.2
180.5918,200.6
180.6032,157.2
180.6516,444.6
180.7207,171.8
180.7516,624.4
180.8003,770.8
180.827,16.1
180.8443,120
180.8534,68
180.8858,103.3
180.8882,464.5
180.8945,1427.9
180.904,7460.2
181.0116,321.6
181.0155,166.8
181.0261,773.9
181.0649,2698.3
181.1173,18.7
181.3022,16.8
181.3309,18
181.3778,197.4
181.4684,640.8
181.6425,99.9
181.6521,313.9
181.7067,417
181.7766,147.9
181.8076,409.5
181.8367,142.8
181.8408,679.9
181.862,186.2
181.9117,19.6
181.919,669.6
181.9435,204
181.9864,713.6
182.011,30.8
182.0425,32550.5
182.0808,437.1
182.1405,92.6
182.1759,75
182.1934,148.3
182.1961,415.8
182.2594,304.2
182.3276,18.6
182.4589,341.2
182.4703,72.7
182.5356,312.1
182.5543,17.7
182.5774,425.6
182.6221,166.2
182.6652,131.5
182.779,658.9
182.7908,634.5
182.9023,115.6
182.9528,20.6
183.0002,223.8
183.0452,460.8
183.0574,92.6
183.0619,422.3
183.1197,105.4
183.1253,267.6
183.1523,548.7
183.2028,18.2
183.2335,325
183.3101,408.4
183.5169,422.4
183.5625,417
183.5984,703.1
183.6171,462
183.6271,311.6
183.6363,177.4
183.7034,103.9
183.7077,315.5
183.7778,149.5
183.8108,170.3
183.8157,87.6
183.8709,17.7
183.9648,1685.4
184.0374,254.1
184.0657,321
184.0734,4163113.5
184.0809,519.9
184.0847,731.1
184.0862,620.1
184.1093,546.1
184.1699,23.9
184.1727,573
184.182,3483
184.2165,146.4
184.3465,84.4
184.3561,87.3
184.3644,93.7
184.4002,100.2
184.4411,394.7
184.592,694.2
184.68,243.9
184.7569,74.4
184.7798,374.8
184.8773,302.6
184.8993,668.3
184.9297,76.4
185.0324,91021.9
185.0509,16.9
185.0702,7359.4
185.0767,190774.8
185.0839,542.5
185.1448,18.2
185.214,154.7
185.3791,115.5
185.3982,287.1
185.4039,306.7
185.4102,95
185.4143,19.7
185.5173,296.1
185.7185,67.9
185.7305,299
185.737,85.4
185.7565,99.5
185.7698,605
185.8193,190.3
185.8472,560.1
185.9664,82.5
185.9893,451.3
186.0359,1408.4
186.0776,28124.1
186.1304,437.5
186.1336,119.1
186.1432,251.3
186.24,296.4
186.3319,826.8
186.335,241.2
186.3764,602.7
186.3832,358.1
186.4625,544.1
186.5412,181.1
186.5611,96.3
186.5917,228.8
186.8843,300.7
186.912,1720.6
186.9304,304.3
186.9737,314.9
186.984,19.1
187.0304,2375.7
187.0529,1065.9
187.0578,4635.5
187.0714,200
187.0814,741.1
187.0929,537.4
187.1004,258.9
187.1078,6796.2
187.1693,166.3
187.2451,470.7
187.3331,139.9
187.341,72.5
187.3764,199.8
187.3985,101.6
187.4034,232.1
187.4752,508.3
187.565,196.5
187.6587,295.4
187.7496,604.3
187.7664,161.9
187.8162,98.8
187.829,544.5
187.8901,377.5
187.9193,341.2
187.9617,95.3
188.043,150.2
188.0571,16.8
188.1094,621.6
188.141,193.2
188.1784,206.6
188.2889,189.8
188.3687,119.9
188.4322,35.7
188.445,535.7
188.4469,370.3
188.4943,400.8
188.5539,18.3
188.6192,399.9
188.7354,155.1
188.7466,78.8
188.8003,173.7
188.8223,228.2
188.8768,40.8
188.9918,379.8
189.0025,536.4
189.0065,146
189.0181,271.8
189.021,94.4
189.0383,752.3
189.0611,4626.5
189.0682,81.1
189.0871,6023.7
189.0915,578
189.1502,295.8
189.1527,640.2
189.2952,85
189.3325,89.5
189.3533,670.7
189.4354,261.5
189.4459,19.5
189.5566,76.1
189.5713,201
189.6013,130.8
189.6957,611.7
189.9046,19.1
189.9807,172
190.0113,18.1
190.1146,341.8
190.156,102.6
190.1692,234.7
190.201,25.5
190.246,343.2
190.2609,90.5
190.2867,94.4
190.3065,289.1
190.3771,259.2
190.4091,179.1
190.4127,281.6
190.4264,475.7
190.4408,89.5
190.4791,19.8
190.4994,540
190.55,178.9
190.6018,142.2
190.6743,473.6
190.7019,280.4
190.7293,115.2
190.7545,396.3
190.7674,316
190.8073,616.3
190.8284,86.1
190.8726,329.7
190.8883,462.9
190.9442,23.9
190.9955,361.3
191.0001,89.7
191.0083,4169.4
191.0239,25.2
191.0404,131211.2
191.0671,175.5
191.0768,24448.5
191.1495,336.6
191.155,235.9
191.2078,556
191.32,335.9
191.3847,193.5
191.4018,389
191.4213,460.1
191.435,649
191.455,184.4
191.5383,482.1
191.5779,78.6
191.6268,82.5
191.6689,297.1
191.6795,303.7
191.8008,126.4
191.9293,741.9
191.9571,345.8
191.9826,431.7
191.9936,385.9
192.0108,20.9
192.0146,320.2
192.0398,11457.4
192.0438,3541.3
192.0802,572.9
192.1141,524.3
192.117,168.9
192.1218,86.7
192.2209,135.2
192.3567,412.4
192.3597,126.5
192.4628,187.2
192.5022,652.4
192.5525,453
192.7318,84.5
192.7901,584.6
192.7928,94.1
192.7961,751.9
192.9106,54.6
192.9244,75.3
192.9337,349.6
192.9619,484.7
192.9797,781.1
192.9829,725.6
192.9907,488.7
192.9987,5399.9
193.0159,141.9
193.0352,3013.9
193.0431,79.6
193.0596,100.5
193.1095,216.1
193.1162,317.6
193.1481,90.5
193.1973,76.2
193.2186,609.4
193.2605,19.3
193.2653,417
193.509,150
193.5644,351.2
193.6844,117.7
193.6972,695.1
193.9756,22.1
193.9984,972.1
194.0026,92.6
194.0103,85.7
194.0327,2362.2
194.037,294.4
194.0377,314.1
194.0654,257.8
194.1347,77.9
194.154,272.4
194.203,19
194.2962,216.5
194.3939,583.4
194.5335,479.7
194.5383,303.2
194.543,579
194.5568,114.9
194.6028,331.6
194.625,238.7
194.6366,110.8
194.6531,567.7
194.6726,20.4
194.7297,179
194.7412,164.6
194.7554,724.9
194.7765,723.8
194.8516,19.1
194.8894,74.9
194.9038,181.8
194.9672,223.3
195.0218,88.3
195.0443,92
195.1247,250.1
195.1536,77.6
195.1698,738.9
195.1932,195
195.2101,81.3
195.2127,134.3
195.3556,577.4
195.4966,175.1
195.6306,163.7
195.6864,78.6
195.7169,72.9
195.747,350.6
195.8052,86
195.8629,673.3
195.8721,361.6
195.9541,18.3
195.9776,1272.3
195.997,199.3
196.0274,170.3
196.0523,254.2
196.0791,333.5
196.116,89.6
196.1696,404.4
196.1961,302.4
196.2469,161.7
196.2793,18.1
196.2857,324.5
196.3346,617.1
196.3742,441.1
196.4249,282.8
196.4345,15.4
196.4354,15.1
196.4443,79.8
196.4679,154.4
196.5135,373.4
196.58,385.4
196.6478,19.2
196.7766,167.8
196.8559,182
196.8652,7949.9
196.8725,207.7
196.878,866.3
196.8862,121.3
196.9328,748.1
196.9687,51.3
196.9745,260.5
197.0236,94.5
197.0342,131.1
197.0612,677.6
197.0738,20.4
197.101,5753.7
197.2528,130.3
197.3034,84.5
197.3415,75.2
197.3457,506.3
197.5382,254.6
197.6015,89.1
197.6097,559.8
197.6245,17.9
197.7388,88.7
197.8066,87.5
197.8457,424.1
197.8494,246
197.8715,433.7
197.8913,20.1
197.8957,475.9
197.9371,145
197.9433,324.5
198.0657,348.9
198.085,12217.4
198.0888,1090.6
198.1816,16.2
198.1853,6612.8
198.1924,22
198.2929,258.8
198.3193,140.2
198.3669,89.4
198.4107,21.2
198.5029,159.3
198.5225,180.1
198.603,224.6
198.6485,23.6
198.7781,569.2
198.8622,6987.5
198.9514,20.6
198.9685,358.1
199.0166,752.9
199.0208,610.5
199.0449,67.4
199.0689,289.6
199.0754,1299.7
199.0804,43.5
199.1175,75.3
199.1885,303
199.1953,264.5
199.1997,152.2
199.24,600.6
199.2929,497.8
199.3648,323.7
199.3748,330
199.3829,394.6
199.4016,340
199.4325,123.3
199.4392,239.6
199.467,237.6
199.5392,101.3
199.5445,799
199.5559,470.3
199.5853,187.2
199.6148,616.9
199.6679,81.1
199.7002,440.2
199.7348,115.4
199.7426,218.7
199.7817,579.4
199.8383,165.6
199.8433,137.2
199.929,185.9
199.9537,245.1
199.9907,27099.8
200.0408,18507.8
200.0589,78.9
200.0683,382
200.0804,282.2
200.0867,538.4
200.1677,305.5
200.2075,160.3
200.2105,829.5
200.217,11235.4
200.4467,97.3
200.5356,105.5
200.5691,18.7
200.5876,637.6
200.6936,19.4
200.7495,22.3
200.7532,361.7
200.7971,450
200.8271,253.4
200.8593,1425.1
200.8679,17
200.8943,513.2
201.0002,718.6
201.0439,423.9
201.0873,71.8
201.1974,427.6
201.3318,95.1
201.3413,17.5
201.3625,293.4
201.4812,625.4
201.5087,417
201.6264,433.7
201.7025,214.3
201.7185,175.9
201.7227,603.9
201.768,79.5
201.79,609
201.7948,18.7
201.8266,428.6
201.8647,163.6
201.8944,24.7
201.9236,18.4
201.9887,70.8
201.9955,108.2
202.0162,37.3
202.0705,385.1
202.1601,260.5
202.2262,179.5
202.2372,150.7
202.3628,460
202.4271,15.9
202.4453,649.7
202.4683,502
202.4825,565.3
202.5463,319
202.561,576.7
202.5715,17246.5
202.5759,740.8
202.7186,391.8
202.8083,140.4
202.8657,18.8
202.8859,1068.1
202.8952,75.3
202.9695,19.4
202.9957,19
203.0095,564.8
203.0319,3871.1
203.0485,909.9
203.0527,1184067.6
203.0768,9159.7
203.0889,229.8
203.1028,602.6
203.1466,77.7
203.1701,97.3
203.2099,115.5
203.2872,308.6
203.3306,104.1
203.4893,402.3
203.5105,301
203.5571,158.8
203.5626,482.9
203.6043,224.7
203.61,461.1
203.617,185.9
203.6892,18.8
203.7643,97.3
203.7757,19.1
203.7905,21.4
203.874,438.6
203.9054,173.3
203.9616,127.3
203.9709,728.6
204.0244,47217.1
204.032,123.4
204.0561,62823.3
204.0642,259.7
204.0868,379.7
204.1137,17.8
204.1324,23.7
204.1416,571.9
204.1529,218.3
204.2582,293.4
204.3005,91.9
204.3492,137.4
204.3579,181
204.3683,429.3
204.4673,19.8
204.4703,617.1
204.5462,19
204.5537,81.7
204.5766,304.3
204.6556,88.6
204.6927,97.1
204.7074,130.1
204.7095,134.4
204.7941,379.7
204.8355,172.1
204.8781,386.1
204.8888,109.8
204.8976,328.9
204.9412,495.3
205.0168,27.3
205.0278,113.7
205.0358,269.7
205.057,8224.6
205.0688,776.1
205.0836,79.3
205.0959,176.7
205.1458,92.7
205.179,280.8
205.2539,22.1
205.2652,114.8
205.3286,302.4
205.3737,258.6
205.395,200.3
205.4094,321.2
205.4868,986.8
205.5278,321
205.5534,394.9
205.6711,618.3
205.9394,357.2
205.9621,195.1
206.0034,129.5
206.0272,25.7
206.0475,194
206.0828,92.3
206.1147,257.7
206.1167,286.8
206.2119,156.3
206.2426,95.7
206.2742,322.7
206.278,108.5
206.3472,84.3
206.3801,365
206.3889,143.3
206.3997,396.7
206.5311,673.1
206.5903,291.2
206.6234,626
206.6566,753.1
206.7339,801.5
206.794,89.4
206.814,419.8
206.8877,126.7
206.894,19739.8
206.9168,252.1
206.9265,99.7
206.9417,291.4
206.9822,3331.6
206.9978,164.3
207.0144,93728.4
207.0182,77.4
207.0314,26.2
207.0442,410.2
207.0507,13175.8
207.1268,18.5
207.1352,18.1
207.2096,339.4
207.3485,805.3
207.4373,162.9
207.4655,191.3
207.5062,114.1
207.6141,260.6
207.6545,83.6
207.6723,401.4
207.6733,466.4
207.6744,295.6
207.7144,74.9
207.8235,131.9
207.8626,393.3
207.8863,68.6
207.9127,19.2
207.9874,416.7
207.9907,2082.5
208.0136,1373.9
208.0177,3117.2
208.0429,50.8
208.0565,18.4
208.1065,245.8
208.134,159.2
208.1676,721.6
208.201,196.7
208.2227,72.1
208.2504,240.7
208.2606,225.4
208.2731,76.9
208.4323,125.5
208.5512,18.2
208.596,164.3
208.7618,80.8
208.7921,208.5
208.8506,102.1
208.8831,1314
208.891,9743.1
208.934,524.9
208.9553,21.2
209.0124,3349
209.11,549.5
209.2149,610.9
209.2348,600.4
209.2814,110.7
209.2855,191.7
209.2974,171.8
209.3025,157.3
209.3194,22.1
209.3427,19.4
209.3963,202
209.513,21.5
209.5668,582
209.7506,19.5
209.8215,22.8
209.8837,27.8
210.2479,19.1
210.6459,704.7
210.6529,19.5
210.6602,73.2
210.7445,217.6
210.7919,157.3
210.8076,87.5
210.8237,106.7
210.838,186.8
210.8819,254.1
210.8882,528
210.8989,119.4
210.9479,49.1
210.9716,203.4
210.9745,760.1
211.0293,237
211.0466,217.1
211.0566,426.8
211.069,1423
211.109,630
211.2473,881.6
211.2504,1595.3
211.255,4918.7
211.2596,17188
211.2632,22740.9
211.2653,21550.4
211.267,24156.6
211.2718,18284.9
211.2736,20056.8
211.2782,8142.6
211.2814,5392
211.2854,3955.5
211.2903,499.2
211.35,409.8
211.3756,165.2
211.5045,567.7
211.5541,455.5
211.6457,269.8
211.7143,90.9
211.8029,375
211.8545,557.1
211.9219,304.2
211.9376,329.5
211.9471,413.4
211.9591,118.8
211.9666,748.2
212.0246,254.8
212.0741,171.6
212.0846,109.1
212.1492,24
212.3579,127.4
212.4931,758
212.6,313.5
212.635,78.2
212.6403,491.3
212.8391,2259
212.8486,220.7
212.911,17.7
212.9493,161.7
212.9652,24
213.0323,125.1
213.0566,489.3
213.066,302.4
213.075,2188.1
213.099,192.9
213.1066,316.3
213.1161,632.6
213.2642,413.7
213.2723,141.2
213.2994,137.5
213.3142,303.6
213.3864,84.3
213.4626,25.3
213.5925,772.2
213.6215,80.7
213.6901,559.9
213.7193,337
213.7387,18.4
213.841,308.7
213.8728,440.9
213.8911,17.9
213.9065,101.4
213.9207,123
213.9359,18.1
213.9621,1913.7
213.9847,218.1
214.0369,472.7
214.04,85.6
214.0521,200.7
214.059,15943.6
214.0897,1051.2
214.1557,710.9
214.1977,289.8
214.3051,479
214.3428,240.1
214.3947,76
214.431,102.2
214.4519,368.6
214.5601,368
214.8132,105.4
214.836,2536.9
214.8735,107.6
214.8881,581.5
214.9,328.9
214.9046,288.6
214.9098,118
214.9179,31.5
214.9655,63.5
214.9744,619.6
214.9959,603.6
215.048,520.8
215.0887,21.5
215.0931,27.5
215.171,70
215.1723,70.4
215.4009,599.9
215.4049,245.1
215.4555,540.5
215.4588,658.1
215.6368,211.6
215.6588,593.8
215.6689,634.4
215.7712,117.5
215.8922,316
215.9144,125.4
215.9578,40.9
215.9639,123
216.0147,8724
216.0382,153.3
216.0612,276
216.0931,739.8
216.1283,17.1
216.1541,294.5
216.1654,540.5
216.2016,128.6
216.2676,112.2
216.3088,160.1
216.4016,21
216.779,96.2
216.884,312.3
216.9228,43832.4
217.0033,19
217.0272,553.3
217.0561,120.2
217.0627,117.1
217.0673,72.9
217.0819,710
217.0976,292.2
217.1829,85.2
217.2715,382.4
217.2775,411
217.4961,596.3
217.5,303.7
217.5007,327.4
217.502,156.2
217.6158,217.8
217.6552,193.4
217.7265,75.1
217.822,174.2
217.8728,111.8
217.9699,314
217.9906,380.9
218.0174,642.5
218.1428,82.3
218.1515,23.1
218.1982,78.3
218.2247,115.5
218.3997,102.9
218.4117,307.8
218.661,335.5
218.6673,365.1
218.7066,110.4
218.7171,289.8
218.7872,125.9
218.8287,869.9
218.8675,111.2
218.9047,85.3
218.9198,11098.5
218.9686,616.8
219.018,810.3
219.0267,1307581.9
219.083,13004.1
219.1676,1066.6
219.4645,144
219.6113,145.4
219.6799,168.2
219.6863,154.3
219.8296,224.8
219.9514,143.1
219.9909,21.8
219.9981,517.4
220.006,28.7
220.03,69198.7
220.0371,1694.8
220.067,15022.7
220.0791,713.8
220.1038,334.3
220.1176,124.9
220.1462,16.7
220.1673,448.9
220.2544,121.4
220.2578,86.4
220.2718,680
220.6311,389
220.661,364.3
220.7954,341.1
220.8032,159.3
220.8274,90.7
220.9346,788.6
221.0248,78725.8
221.0309,8058.9
221.042,419.8
221.0511,1007.6
221.0844,236.9
221.0872,691.3
221.1369,522.3
221.1567,671.1
221.1594,129.7
221.1946,121.2
221.2208,83.6
221.406,176.3
221.4197,196
221.439,293.4
221.471,260.5
221.5196,548.3
221.6484,173.5
221.7004,458.7
221.8918,21.2
221.9436,83.9
221.9563,78.2
221.9738,243
222.0132,354.2
222.0283,1931.5
222.0446,88.2
222.077,108.2
222.1064,73.2
222.1269,20.4
222.1893,769.1
222.2514,338.5
222.2766,927.6
222.2817,93.7
222.3269,114.1
222.3516,584.5
222.4396,90.8
222.4862,99
222.5024,246.3
222.7414,559.3
222.75,220.2
222.8019,20.3
222.8679,14415
222.8988,523.5
222.9539,1781.6
222.9884,8301.5
222.9923,520.7
223.0374,1135.8
223.0577,89.9
223.0914,936.9
223.2092,288.1
223.3028,801.6
223.4204,881.2
223.4462,128
223.4727,126.7
223.8387,662.6
223.8504,468.2
223.8982,278.6
223.9163,503.1
223.9533,24.3
224.0295,1701.3
224.0779,175.2
224.1013,84.1
224.2142,84.7
224.244,282.8
224.3241,100.4
224.392,511
224.5781,174.5
224.6512,284.5
224.6804,287.8
224.865,9155.1
224.871,152.5
224.8791,22.4
224.912,92.7
224.9274,167.6
224.9343,97.5
224.9523,731.1
224.9826,602.1
224.9841,568.9
224.9854,551.4
224.9929,739.8
224.9966,22.1
225.0004,119.3
225.0142,126.6
225.0235,52
225.046,141.5
225.0548,23378
225.0848,746.3
225.1092,315.5
225.345,89.8
225.6574,298.6
225.6913,871.3
225.7858,635.3
225.9528,191.2
226.0017,45.4
226.0063,1805.1
226.0123,94.3
226.0242,9211.4
226.045,4486.3
226.0583,136.1
226.0885,137.5
226.3136,114
226.348,168.5
226.4106,19.1
226.4503,324.8
226.4661,354.5
226.4853,869.2
226.5402,186.8
226.5572,533.2
226.7058,242.2
226.8304,920.2
226.8749,303.5
226.883,17.7
226.8938,23.4
226.9516,30671.6
227.0341,191.7
227.0434,107.5
227.0487,617.4
227.0576,575.3
227.0713,103.3
227.079,1565.4
227.0865,165.4
227.2779,135
227.3066,219.6
227.5569,631.9
227.6118,73.6
227.6676,132.4
227.6797,386.8
227.683,81.3
227.7154,731.1
227.8556,152.2
227.9617,202
228.0003,266.5
228.0225,804.4
228.0562,1063.6
228.3705,198.5
228.3767,130.3
228.4521,149.9
228.4894,303.9
228.5142,373.4
228.6675,101
228.7391,310.8
228.7854,668.1
228.8129,415.8
228.8898,21.3
228.8947,23
228.9145,125.4
228.9602,42.5
229.0181,20.4
229.1172,487.6
229.1784,356.7
229.1844,164.5
229.3295,772.6
229.3398,75.2
229.3465,198.8
229.409,140.7
229.4663,18.6
229.4965,206.3
229.5652,227.3
229.577,261.7
229.642,20.5
229.7779,78.6
229.8615,122.1
229.9017,274.4
229.957,6414.9
230.0333,130.7
230.0388,147.7
230.0565,103
230.1429,280.3
230.1863,89.7
230.2443,281.7
230.3464,124.3
230.4029,102.1
230.6102,534.7
230.6898,84.7
230.8901,473
230.9619,403.2
230.9635,719
230.9907,42.4
231.0478,200.4
231.0605,331.3
231.1208,276.7
231.2336,18.7
231.2422,223.9
231.3637,83
231.417,456.8
231.5539,438.4
231.9528,133.6
231.9574,202.9
231.9609,20
231.9732,596.6
231.9762,118.9
231.9898,115.3
231.9954,64.4
232.0112,81.2
232.0631,168.3
232.1955,120
232.2709,306.2
232.3171,107
232.3657,240.6
232.3697,82.1
232.4006,395.3
232.4995,195.2
232.5041,475
232.8152,219.9
232.8968,32421.3
232.9084,405.2
232.9224,38.8
232.9435,157
232.9858,1222.5
232.9933,114
233.0184,388.1
233.0509,10804.2
233.0583,117.7
233.0836,368
233.1129,89.4
233.3255,137.3
233.345,418.5
233.4135,191.5
233.6264,85.1
233.8044,81.8
233.81,346.5
233.9326,325.6
233.9934,423.9
233.9974,546.1
234.0427,366.2
234.1714,124.6
234.3555,143.2
234.4441,517.5
234.5371,583.4
234.5852,619
234.6032,19.4
234.6113,235.4
234.8527,773.8
234.8938,7323.5
234.9763,198.3
234.9816,4815.1
234.9911,87.5
235.0568,8387.9
235.0668,2209.5
235.0925,6453.1
235.1025,106.5
235.1109,625.6
235.1307,364.5
235.1733,116.7
235.2224,283.7
235.2648,336.8
235.3514,673
235.3717,95.1
235.5382,498.1
235.6113,87.2
235.6164,86.1
235.773,148.4
235.8277,363.3
235.8609,95.3
235.8886,19.3
236.022,695.4
236.0409,4018.1
236.0717,50470.5
236.1064,875.2
236.1474,368.1
236.1655,94.5
236.1931,583.9
236.2905,721.4
236.331,86.7
236.3558,100.3
236.4725,18.3
236.5363,308.1
236.6002,127.7
236.6131,462.8
236.6689,80.3
236.878,202.6
236.9081,120.9
236.9149,24
236.9326,261.5
236.9938,743.7
237.0299,186.7
237.0715,69.5
237.0751,1725.9
237.3235,283.9
237.5445,339.1
237.7489,345
237.7512,112.3
237.7791,411.4
237.8172,84.2
237.8219,275.2
237.8899,80.5
237.8984,24.6
237.9666,332.5
238.0001,151.1
238.0674,660.2
238.0781,70
238.1695,592.5
238.1981,285.5
238.3395,417.9
238.4438,498.5
238.4916,135.7
238.5738,114.5
238.6009,257.9
238.6364,162.6
238.7562,323.1
238.8419,3807.4
238.8538,462.4
238.8556,381.6
238.8574,230.7
238.8802,503.1
238.9189,315.9
238.9427,506.5
239.0091,5588.2
239.0177,482.3
239.0477,171.4
239.0518,196.1
239.0602,281.5
239.0637,388
239.0684,979.5
239.0943,320.3
239.1818,311.8
239.1983,253
239.3226,166.1
239.3438,642.3
239.392,78.4
239.4755,573.7
239.5109,18.9
239.541,560.4
239.6601,440
239.7536,160.7
239.8291,114.1
239.8356,148.8
239.8452,18.6
239.8563,103.5
239.9749,582.3
240.003,484.8
240.0306,111.5
240.2686,73.5
240.3273,664.8
240.3384,259.3
240.3445,19.2
240.3642,338.6
240.3764,480.7
240.4362,233.3
240.6468,343.9
240.727,103.9
240.7715,89.3
240.7949,570.7
240.8388,2020.2
240.9081,141
240.9282,324.9
240.9552,822.1
240.9677,876.4
240.9813,22.4
241.0318,670.4
241.0793,133
241.1056,71.8
241.1985,93
241.3327,816.5
241.3453,190.7
241.3729,84.3
241.3882,101.5
241.4335,614
241.5442,21.3
241.5762,79.8
241.6005,100.9
241.7274,105
241.7454,140.3
241.8726,139.8
241.9774,166.8
241.9982,1233.2
242.0193,3006.2
242.0693,78.6
242.0761,122.4
242.109,18.9
242.2505,175.3
242.2585,19.4
242.3732,549.4
242.3814,128.7
242.5049,317.9
242.5133,91.1
242.6105,117.7
242.6599,86.1
242.7605,396.1
242.7642,408.1
242.8092,454.1
242.9256,16107.1
242.9655,20.8
242.9755,49.3
242.9906,131.2
243.0064,943.6
243.0533,8213.4
243.0653,7151.9
243.2104,268.7
243.2425,300.3
243.2762,304.7
243.6091,350.1
243.622,153.6
243.6757,219.6
243.7995,156.3
243.8052,85.3
243.829,176.2
243.9575,26.8
243.9627,175.1
243.9727,3327.4
244.0125,370
244.0479,68.4
244.0916,114.7
244.1163,473.7
244.1827,161.3
244.4525,462.4
244.7525,178.3
244.8466,20.9
244.8706,3200.3
244.9142,77.3
244.9245,298.9
244.9433,252.7
244.9571,123.7
244.976,142.9
245.026,117.5
245.0721,86.3
245.1388,21.7
245.1924,68
245.2513,375.2
245.2689,765.7
245.2986,91.8
245.3375,69.2
245.3415,19.1
245.3504,222.5
245.3594,96.1
245.385,107.7
245.3978,85.1
245.4691,109.9
245.5062,116.8
245.5439,301.9
245.578,82.8
245.5946,18.4
245.6004,88.1
245.6506,416.4
245.6775,81.6
245.8197,318.2
245.8503,746.6
245.858,19.6
245.8668,17.9
245.9516,20.7
245.9691,33
245.9731,112.5
245.9884,133.2
246.0014,122.8
246.1442,87.5
246.2208,310.1
246.2374,107.5
246.483,192.4
246.5691,281.4
246.5907,520.2
246.5942,16.7
246.8625,346.3
246.8808,135.7
246.9031,572.3
246.9186,22.3
246.9516,2422.7
247.0526,132.8
247.0582,343.7
247.0667,1723.2
247.0842,122.2
247.0926,3783.3
247.4158,21.7
247.4344,231.2
247.4782,305
247.5186,659.3
247.5508,98.4
247.5872,19.4
247.7531,25.2
247.8841,539.5
247.923,25.2
247.9384,125.3
247.9676,506.9
247.9833,434.1
248.0854,16.8
248.1125,76.6
248.1243,7716.6
248.1627,87.2
248.1679,332.5
248.2736,555.2
248.3895,171.6
248.4419,71
248.5306,73.9
248.5791,860.2
248.6752,399.5
248.7053,20.9
248.7471,91.8
248.7507,87.2
248.7727,126.7
248.8707,8718.5
248.9023,710.5
248.9484,65
248.9595,1149
248.9997,416.3
249.0157,751.4
249.0613,11100.2
249.0821,100.9
249.1167,82.3
249.1965,312.1
249.2693,187.3
249.3677,126.6
249.405,236.9
249.4743,19.3
249.4828,162.6
249.4837,162
249.4967,100.7
249.5441,378.8
249.5698,414.9
249.5733,699.1
249.7178,69.8
249.7218,217.3
249.8037,185
249.8861,24.2
249.9356,431.9
249.9713,255.8
249.9841,199.3
249.9977,513.6
250.0381,1275.5
250.0542,86
250.0647,1452
250.1933,108.5
250.1999,198.8
250.3764,751.5
250.4362,81.4
250.4835,127
250.5953,126.6
250.6043,358.8
250.6353,374.2
250.6752,201.1
250.6865,98.3
250.7089,171.5
250.7371,416.6
250.78,86.2
250.868,921.2
250.8793,486.6
250.8937,174.1
250.9203,4089.2
250.9459,770.6
250.9554,1327.9
250.9731,230.2
250.9946,372.1
251.0273,98.8
251.0341,94.3
251.038,321
251.0835,167.9
251.127,174.8
251.1829,606.1
251.3176,72.5
251.3496,76.1
251.6904,318.8
251.7377,129.4
251.8055,93.1
251.8625,142.6
251.8974,123.7
251.9059,191.1
251.9222,101.1
251.9661,18.3
251.9806,714.1
251.9905,124.6
252.037,140.9
252.0457,99519.4
252.0566,295.4
252.0615,125.9
252.0717,413.3
252.1309,112.6
252.1892,350.1
252.2147,167.6
252.2499,814.6
252.3865,303.5
252.4562,504.9
252.554,18.8
252.5676,488.2
252.5925,222
252.6882,507
252.6948,80.6
252.9067,112.2
252.9174,1185.3
252.9511,28.4
253.0245,96.4
253.0373,85.5
253.049,6664.7
253.1865,666.7
253.2451,547.6
253.2542,410.2
253.2768,18.2
253.3405,166.3
253.4437,668.3
253.5222,273.1
253.6044,634.4
253.6417,121.2
253.6511,91.5
253.7052,82.5
253.7682,292.7
253.9637,22.3
253.9952,569
254.0081,160.6
254.013,76.5
254.0352,624.4
254.0433,3063.8
254.0517,897.6
254.1201,80.2
254.1406,22.4
254.2588,118.5
254.2685,20.7
254.2965,95.7
254.306,329.5
254.4082,502.6
254.471,118.7
254.5543,83.6
254.6068,16.8
254.6978,84.4
254.8159,789.7
254.8239,8480.3
254.8727,787.6
254.8834,320.6
254.8888,17.7
254.8992,828
254.9861,117.6
255.025,265.6
255.0329,24190.1
255.0405,337.2
255.0472,441.1
255.072,277.8
255.0919,313.7
255.1352,19
255.1419,81.5
255.1852,598
255.2474,352.7
255.3459,171
255.3692,83.4
255.4699,90
255.5001,170.2
255.5298,21.4
255.5827,86.4
255.6622,311.4
255.7431,137.9
255.7504,217.3
255.9365,67.1
255.9565,19.9
255.9726,23
256.0033,714.4
256.0104,329.9
256.058,25
256.0936,215.1
256.1143,18.2
256.1362,135.4
256.2582,91.2
256.3214,95.4
256.4591,395.3
256.7609,152
256.7973,17.7
256.8209,11837.9
256.8945,97.4
256.8977,323.7
256.9328,914.8
256.96,102.4
256.9704,141.1
256.9813,101.8
257.022,123
257.0486,7925.9
257.0658,240.4
257.0746,43063
257.0821,91.2
257.1129,155.4
257.1903,104.3
257.2994,80.1
257.3931,97.5
257.3975,689.8
257.4771,171.2
257.4952,111.4
257.5024,139
257.5206,176.1
257.5553,113.7
257.5816,80.5
257.5851,230.4
257.6469,77.7
257.9519,287.4
257.9884,163.3
258.0114,198.7
258.0163,507.6
258.0235,346.7
258.03,1790.6
258.0716,116
258.0781,946.9
258.1103,15861.7
258.2222,421.7
258.269,757.9
258.3204,130
258.4189,142.8
258.6047,73.7
258.8181,4595.5
258.8996,2667.1
258.9146,80.1
258.9267,732.1
259.0378,143.6
259.0528,133.9
259.0961,186.1
259.3429,186.5
259.3668,230.4
259.5034,77.2
259.5362,708.2
259.5444,495
259.5498,184.1
259.5551,321.3
259.6993,80.8
259.7126,287
259.7944,134.6
259.8035,776.2
259.9056,388.6
259.9406,80.6
259.9654,591.6
259.9766,132.3
260.088,809.4
260.1646,18.7
260.4226,138.8
260.4682,480.7
260.4856,451.5
260.5035,611.9
260.5803,187
260.6321,139.1
260.6654,119
260.785,191.8
260.81,163.4
260.8154,447
260.8448,2330.9
260.8498,145.9
260.9176,22.7
260.9253,119.3
260.9491,8288.7
261.0126,677.4
261.0379,87.3
261.0463,993.3
261.1262,179
261.1603,208.7
261.2543,287.4
261.2716,124.3
261.3405,19.7
261.3715,17.2
261.386,657.2
261.4379,256.8
261.4868,481.7
261.579,301.4
261.5935,777.8
261.6206,160.2
261.6501,597.1
261.6596,446.5
261.8358,498.9
261.8765,79.1
261.9354,94.8
261.94,212.8
261.9695,108.4
261.9833,238.8
262.0817,1794.4
262.1823,17.7
262.2482,87.6
262.466,97.1
262.5442,87
262.5809,305.9
262.6149,377.1
262.6215,130
262.6386,319.2
262.6447,712.9
262.8862,837.9
262.9463,2275.1
263.0138,411.9
263.0847,461.9
263.0891,249.1
263.1627,19.6
263.2219,18.6
263.247,1053.1
263.509,86.3
263.5397,550.7
263.6079,103.6
263.7363,107.4
263.8762,826.4
263.8999,227
263.951,181.1
264.0417,304.4
264.0659,277
264.1577,528.5
264.1833,151.7
264.2039,795.5
264.2304,25.8
264.396,21.2
264.4315,106
264.4623,182.1
264.523,171.1
264.6693,493.3
264.8184,105
264.8448,1143.5
264.8528,5722.7
264.8733,110.8
264.9335,3065.7
264.9681,418.2
264.9722,994.8
264.9884,15616.4
265,181.8
265.0166,87.7
265.0249,20.4
265.0351,6482.5
265.0474,1130.8
265.0651,130.9
265.0839,207.7
265.2162,756.5
265.4226,224.9
265.453,102.3
265.5753,671.8
265.6479,237.9
265.6741,199.9
265.7104,80.3
265.7815,311.5
265.9335,23.7
265.9576,128.4
265.9782,286.3
265.9915,301.1
266.0176,18.3
266.182,715.5
266.1914,1051
266.2172,124.7
266.3288,18
266.3443,247.7
266.4338,95.3
266.488,159.6
266.5772,112.6
266.8212,221.8
266.8499,6182.3
266.8942,2646.4
266.8982,301.1
266.959,98.9
266.9747,201.9
266.9816,19.2
267.0331,388.9
267.093,17.6
267.1499,80.1
267.163,508.4
267.186,472.6
267.2009,93.7
267.2514,401.5
267.3463,226.9
267.5128,70.3
267.6389,306.4
267.6845,90.9
267.8275,559.9
267.8941,309.5
267.9498,83.4
267.9736,123.5
267.9938,766.8
268.009,90.7
268.0298,708.2
268.1396,380.3
268.3628,92.5
268.3801,199.9
268.4093,460.7
268.4838,109.9
268.5236,107.4
268.8156,118.4
268.847,1502.1
268.8556,17.8
268.8707,853.9
268.9517,230.4
268.9739,91.1
269.0053,77
269.0279,371.3
269.0363,453.2
269.0486,41146.9
269.0744,122.6
269.1312,76.5
269.3057,171.8
269.4207,141.3
269.4858,18.9
269.5639,289.8
269.5702,833.5
269.6415,79.9
269.8302,457.6
269.9507,304.5
269.9574,93.2
269.9785,83.2
269.9895,338.9
270.0095,106.6
270.0248,15791
270.0347,140.8
270.0475,19391.6
270.1076,180.2
270.1452,436.8
270.4432,178.7
270.5359,141.4
270.5725,78.3
270.7719,290.2
270.7788,615.8
270.7913,393.1
270.798,3482.2
270.8071,381.9
270.9319,18.5
270.9601,25
270.9779,14190.1
270.988,80.1
271.0241,369
271.0281,1146.5
271.0505,297.4
271.0773,989.6
271.0903,2891.9
271.163,68.2
271.2602,390.1
271.2885,94.3
271.3537,77.6
271.4253,544.8
271.4536,23.5
271.4781,157.1
271.5058,24.4
271.5096,163.2
271.5491,19.1
271.9672,121
272.0045,42.2
272.0155,144.9
272.0207,449.5
272.0297,53.5
272.0448,134.1
272.0803,151.8
272.1103,357.6
272.2349,409.9
272.3043,171.5
272.3184,84.9
272.6331,589.7
272.7951,5075.6
272.801,408.6
272.8765,107.9
273.0238,22.1
273.0486,1460.4
273.1315,163.8
273.2215,371.4
273.2497,542.4
273.5597,320.1
273.6424,18.3
273.822,185
273.8511,154.7
273.9066,238.2
273.9205,20.2
273.9626,13362.7
274.0693,31.8
274.0924,1000.2
274.1539,93.9
274.3562,172.2
274.4528,272.9
274.5581,273.5
274.6025,20
274.7321,21.9
274.7919,1524.7
274.802,24
274.898,285.4
274.9091,99.1
274.9829,31.9
275.0687,165.5
275.0785,115.2
275.0916,137.1
275.1445,184.5
275.1908,157.9
275.1982,514.4
275.2432,387.8
275.2569,199.1
275.2831,81.8
275.372,88.4
275.5087,572.8
275.5196,762.7
275.5634,130
275.5921,589.5
275.7236,18.3
275.8324,540.5
275.9234,586.8
275.9958,654.6
276.0033,140.7
276.0842,26.5
276.2478,230.9
276.3266,607.7
276.4901,151
276.506,131.7
276.586,266.3
276.6073,488.5
276.6753,408.2
276.7029,18.1
276.7752,288
276.9106,52.6
276.9233,5942.6
277.0282,101
277.1759,76.6
277.1993,225.1
277.2441,297
277.3748,542.5
277.4311,289.1
277.4378,69.1
277.4444,124.4
277.5277,93.2
277.539,95.9
277.6292,70
277.6512,425.9
277.6815,96.5
277.8963,532.5
277.9753,17.4
278.0191,324.2
278.2383,257.5
278.2485,16.5
278.3424,232.2
278.3483,321.9
278.4389,124.3
278.4625,135.4
278.5294,342.6
278.6371,568.4
278.8464,25.1
278.8881,361.7
278.9123,437.6
278.9202,1179.1
278.9416,160.7
279.0042,1594.4
279.0221,21.9
279.0566,38542.7
279.1145,85.2
279.1235,101
279.381,76.2
279.4862,735.9
279.6508,231
279.6951,771.4
279.7764,568.2
279.8769,601.9
279.8851,87.3
279.8936,302.5
279.8982,676.9
279.9037,91
279.9564,126.4
279.9993,24.1
280.0119,1610.5
280.0601,90
280.1769,196.1
280.4545,537.5
280.4889,317.9
280.5305,172.9
280.6389,250.3
280.6636,269.1
280.6656,300.6
280.6672,314.3
280.8093,317.7
280.8268,2131.1
280.8531,378.5
280.8851,218.4
280.9624,424.1
281.009,519.3
281.0511,356.1
281.0908,19.4
281.1066,452.1
281.1201,21.9
281.3214,237.3
281.4299,348.5
281.5778,21.3
281.8878,67.3
281.9729,387.9
281.9915,498.7
282.0151,46.3
282.0647,344.9
282.08,19.2
282.1381,29.9
282.1451,75.1
282.2954,115.8
282.5394,79.1
282.6781,720.6
282.7096,701.7
282.7834,18.7
282.8238,1532.1
282.8354,371.6
282.8681,634.8
282.8749,361.6
282.8931,591.7
282.8985,283.5
282.9828,296.2
283.0072,235.4
283.0277,513.8
283.0483,20.3
283.1502,533.1
283.178,168.9
283.2041,17
283.4373,106.3
283.5689,388
283.6565,196.2
283.7294,78
283.8477,346.9
283.852,843.5
283.9492,173.2
283.965,128
283.9889,56.5
284.0039,80.5
284.0245,151.5
284.0563,391.2
284.0628,90.8
284.2392,93.4
284.2689,18
284.2981,150.6
284.3196,22.1
284.3525,497.5
284.5293,157.8
284.6077,145
284.6706,115.1
284.8225,17.9
284.8411,233.3
284.9315,697.4
285.0166,92.9
285.0227,641.1
285.0488,235.9
285.2352,694.5
285.3448,246.1
285.4811,163.8
285.541,750.3
285.5484,571.7
285.6142,86.3
285.7385,17.9
285.7616,468
285.9662,365.2
286.0197,3432
286.0253,26.6
286.0816,83.8
286.0957,60.8
286.1669,180.4
286.2648,417.4
286.3239,92.6
286.3446,628.1
286.5902,107
286.6624,447.7
286.6688,248.7
286.6933,331.5
286.7718,679.4
286.797,126.1
286.8587,20.8
286.8983,126.9
286.952,4214.1
286.9693,194.3
286.9988,184
287.0229,245.9
287.0554,27775
287.0943,87.3
287.1002,828.2
287.1531,847.8
287.2553,108.1
287.3057,20.9
287.368,241.2
287.5049,352.5
287.5476,225.8
287.7156,633.5
287.8838,235.7
287.9498,96.1
288.0154,80.5
288.0352,194.2
288.059,1339.7
288.0847,73.3
288.1556,30936.2
288.264,176.9
288.323,380.7
288.4773,77.6
288.5448,336
288.5849,231.7
288.6259,139.1
288.7688,3202.4
288.8243,604.6
288.8406,28.1
288.8543,196.1
288.8801,21.6
288.9224,1424.5
288.9403,71.9
288.9501,1226.1
288.9546,2041.4
288.9661,3714.6
288.9694,3781.7
288.9767,6245.9
288.9844,8222.3
288.9923,11142
288.9972,16867
289.002,18632.8
289.0118,17759.5
289.0148,17542
289.0192,18432.5
289.0269,18615.9
289.0374,17531.6
289.0487,12783
289.052,12226.9
289.0632,4355.3
289.0724,1968.5
289.0801,1608.3
289.0886,1125.1
289.097,209.7
289.1584,1809.8
289.1793,331
289.299,176.7
289.3375,666.1
289.3733,23.3
289.4833,229.8
289.5282,19.4
289.8492,25.5
289.8599,19.4
289.9364,1549.2
289.9643,240.8
289.9657,243.5
290.0408,189.1
290.1583,19.5
290.1757,598.7
290.2123,17.8
290.244,152.7
290.2581,715.1
290.4563,488.8
290.5005,88
290.6032,731.8
290.656,703.9
290.6732,19.7
290.748,262.3
290.7658,1567.8
290.7931,84.9
290.7977,38.1
290.8378,282.2
290.8566,362.8
290.9276,482.4
291.0046,679
291.0269,2033.9
291.1784,550.1
291.3041,105.9
291.3214,311.3
291.4011,167.7
291.4149,787
291.7124,151.1
291.7505,98.5
291.8322,247.7
291.9743,264.6
292.08,28.5
292.3408,232.7
292.3818,157
292.4316,168.4
292.5954,287.8
292.7676,571.3
292.8608,452.2
292.8971,1025.7
292.9153,388.2
293.0056,584.3
293.0448,73.5
293.0521,74.3
293.0723,2357.1
293.0982,366601.8
293.4454,383.6
293.4744,180.4
293.4852,487.7
293.5826,396.7
293.7568,22
293.9964,792.4
294.0953,154.2
294.1016,34243.5
294.2129,69.5
294.3428,160.4
294.3934,418.3
294.5254,23.1
294.5738,483.1
294.7608,357.3
294.8937,491.6
294.9619,87.6
294.9758,448.2
294.9904,181
294.9993,75.4
295.0223,104.4
295.0313,284.9
295.1023,1080.7
295.1167,17.2
295.1947,10499.4
295.5423,22.1
295.5689,20.7
295.622,93.7
295.7702,260.7
295.8773,119.2
295.9217,275.7
295.9767,79.4
296.0101,747.1
296.0271,29.8
296.0657,629.9
296.1043,473.1
296.199,1829.7
296.2821,210.1
296.3544,153.8
296.4903,118.2
296.4979,110.4
296.808,215.9
296.814,157.5
296.8213,555.5
296.9626,82.3
296.9865,745.4
297.0569,168.8
297.0736,228
297.1074,26.7
297.3492,123.1
297.4163,401.8
297.486,317.1
297.5096,428
297.6005,429.8
297.7166,223
297.7406,309.5
298.0253,1508.5
298.0423,14586
298.3559,86.1
298.3807,194.1
298.426,157.5
298.4939,246.2
298.7981,446.9
298.8273,125.7
298.8421,688.6
298.924,304.1
298.9736,71.3
298.9849,63.1
299.023,1744.5
299.0392,48
299.0457,424.7
299.0689,122.6
299.1393,5797.9
299.1535,269.7
299.1881,872.6
299.2276,96.2
299.2551,331.7
299.3578,172.3
299.3742,156.3
299.4233,506.9
299.4706,165.8
299.5725,105.4
299.7935,364.5
299.8158,81.6
300.0045,1462.3
300.0353,1287.8
300.0753,316.9
300.1967,24.1
300.4235,652.1
300.5126,686.6
300.5927,307.7
300.6843,760.2
300.8282,265.6
300.9718,133.5
301.0121,71.7
301.0311,167.4
301.0386,22029.5
301.1019,88.4
301.1413,810.4
301.1572,178.5
301.2033,17.2
301.2418,197.7
301.3332,394.9
301.3887,172.1
301.4654,566.2
301.4734,688.8
301.5407,292.8
301.5894,110.7
301.9158,358.3
301.9689,107.2
301.9939,6815.5
302.0121,486.1
302.0199,2003
302.03,134.4
302.0352,62.4
302.0423,81.9
302.0511,368.4
302.0641,3012.2
302.0733,27.8
302.1526,129.7
302.199,111.6
302.2056,259.7
302.2498,102.7
302.2629,758.5
302.3054,352.6
302.3376,104.4
302.5283,134.4
302.7225,100.9
302.7296,358.6
302.7358,855
302.7558,19.7
302.8295,2097.1
302.8625,119.2
302.9805,84.3
303.0277,1476.9
303.0403,65.2
303.0674,303.7
303.0772,18.9
303.21,679.1
303.217,2165.6
303.232,178.9
303.2807,337.1
303.2868,18.2
303.2995,577.1
303.5,74
303.5494,20
303.6067,325
303.679,696.3
303.9446,18.6
303.9608,88.5
303.9863,369
304.0443,158.7
304.0598,146.8
304.0951,399.4
304.1097,277.5
304.3286,87.1
304.3955,320.2
304.4132,509
304.5209,486.1
304.5309,202.6
304.567,133.7
304.7567,124.6
304.8267,473.8
304.8967,791
304.9031,17
304.9759,485.3
305.0013,301.8
305.028,638.4
305.1527,673.8
305.2826,125.7
305.5026,441.2
305.5662,297.8
305.5953,430.8
305.9405,402.4
305.9828,76
306.0954,46.6
306.2402,280.4
306.2602,169.4
306.3018,75.5
306.3332,163.2
306.3492,587.4
306.4679,95.8
306.4759,98.6
306.53,653.5
306.6442,520.8
306.6928,547.2
306.8132,24.5
306.839,578.7
306.9573,1091.5
306.9774,697.2
306.9921,385.2
307.0296,367.5
307.0529,345.4
307.1892,398.7
307.2196,92.6
307.2493,200.4
307.2621,413.7
307.3071,191.2
307.3298,74.7
307.3365,79.4
307.3818,150.3
307.4143,166.9
307.4804,282
307.5241,149.5
307.613,274.1
307.8103,402.2
307.8411,504.3
307.9119,180.6
307.9147,91.9
307.9537,686
308.0695,21.3
308.1677,211.3
308.285,21
308.2924,165.6
308.306,99.2
308.4945,206.7
308.6491,249
308.6768,204
308.8081,80.6
308.8789,3608.5
308.8889,294.9
308.9207,533.8
309.0064,109.4
309.0376,5020.2
309.1517,75.5
309.3127,99.5
309.4439,232.4
309.6557,91.3
309.8166,725.9
309.8857,673.6
310.2391,519
310.3201,144.6
310.3384,122
310.3436,323.3
310.349,104.4
310.4322,282.1
310.5326,114.1
310.6514,323.5
310.7468,193.4
310.7552,569.4
310.8419,294.1
310.8761,2757.9
311.003,26.4
311.1255,231.9
311.1328,260.2
311.167,228.9
311.1961,657.7
311.2047,257.3
311.2207,340.4
311.281,122.6
311.3302,344.1
311.9147,78.1
311.952,282.3
311.9987,44.8
312.0194,295
312.0253,87.4
312.0412,1520.8
312.0689,78.4
312.0899,236
312.3499,215.7
312.473,657.8
312.4982,383.3
312.6231,244
312.6609,199.2
312.8468,118.7
312.8732,544.4
313.0022,20.5
313.0178,222
313.0378,603.1
313.1931,136.4
313.274,26191.4
313.5875,278.2
313.6,137
313.7196,740.2
313.902,173.3
313.9401,85.2
313.9766,21.6
314.0148,4956.4
314.0911,157.1
314.2774,1956.2
314.521,71.5
314.5375,261.1
314.6542,609.2
314.7976,20.2
314.8369,4364.8
314.9127,25.4
314.9993,5199.5
315.0055,115.4
315.0176,619.7
315.0369,271.6
315.0404,287.9
315.0552,9292
315.0666,12473.4
315.0698,18169.9
315.0802,7290941
315.0875,19734.8
315.0894,12826.6
315.0939,5237.7
315.096,4281.7
315.1023,2639.2
315.1064,1228.9
315.1175,336.8
315.155,497.7
315.1615,5380.5
315.2605,124.4
315.2859,207.1
315.3238,5422.8
315.3895,490.3
315.4862,103.4
315.5629,19
315.6228,141.9
315.6969,141.5
315.8416,546.4
315.8753,77.2
315.9403,401.3
315.9971,82.7
316.0104,152.6
316.0163,27.7
316.0223,18.6
316.0322,112.9
316.053,24.1
316.069,659.5
316.0774,40233.7
316.0835,744699.1
316.1127,376.7
316.1394,194.9
316.1766,789
316.5463,20.1
316.7028,286.8
316.777,510.7
316.7973,90.4
316.8081,111.9
316.8742,330.8
316.9714,16.5
316.9868,1474.7
317.0128,177.6
317.0563,2073.5
317.0652,947.2
317.084,82778.7
317.1521,339.3
317.2104,189.8
317.2432,75.6
317.2701,91.9
317.3572,320.6
317.3599,318.1
317.4414,697.1
317.7046,368.3
318.0876,8137.5
318.1163,106.3
318.2154,392.9
318.2804,257.5
318.3195,89.8
318.3942,86.7
318.4253,635.1
318.5306,18.5
318.5579,284.1
318.5687,104.9
318.6468,678.5
318.6542,81.8
318.7581,529.2
318.7924,489.1
318.8037,1500
318.9079,758.8
318.9818,571.5
318.9955,199.1
319.0508,310.9
319.1145,127.7
319.1948,35337.1
319.2564,18.8
319.3915,344.5
319.4258,19.2
319.6615,412.1
319.6695,95.9
319.7059,333.4
319.7439,154.8
319.817,779.9
319.8334,18.2
320.0073,141.2
320.0293,646.8
320.0745,97.5
320.0841,709.8
320.1982,5272.8
320.2586,2417.4
320.282,313.4
320.2988,653.1
320.568,307.9
320.8013,442.5
320.8304,45.7
321.2105,16573.7
321.2621,114.4
321.4421,78.1
321.5685,194.5
321.612,755.5
321.8173,47.7
321.844,90.2
321.9831,316.5
321.997,25.1
322.0076,286.7
322.0649,283
322.1335,154.8
322.2136,1053.3
322.2232,679.7
322.6956,773
322.7196,98.8
322.786,447.4
322.8135,347.7
322.8725,385.5
322.8868,74.6
322.9318,463.2
322.9676,664.7
322.9918,384.2
323.0205,7754.9
323.089,28.6
323.1877,194
323.2263,91.7
323.3793,356.2
323.7225,106.1
323.726,87.5
323.736,299.9
323.7814,187.4
323.832,17.9
323.8381,216.4
323.9034,686.2
323.9306,357.3
324.0019,11535
324.1412,159
324.3773,162
324.5374,225.2
324.5465,186.2
324.6345,4435.3
324.6387,5452
324.648,2984.6
324.6576,561.7
324.7042,205.3
324.7639,258.8
324.8085,873.9
324.8528,1824.2
324.9288,400.1
325.0063,220.4
325.0976,591.5
325.212,1146.8
325.2166,102.2
325.5013,141.2
325.5474,470.8
325.5565,230.2
325.5658,70.8
325.6006,103.3
325.813,616.7
325.8196,755.5
325.8954,21.2
325.9655,330
326.0041,49.9
326.1608,206.6
326.221,79.3
326.6423,158.9
326.6854,152.2
326.7156,79.2
326.8049,329.1
326.8505,2754.4
326.8741,466.8
326.9306,169.1
327.0157,4098.2
327.0516,943.3
327.1418,175.3
327.2272,4650.4
327.2475,313.6
327.2641,619.2
327.2903,780.1
327.3401,132.9
327.418,94.4
327.5998,477.6
327.6016,450.7
327.7982,135.4
328.3844,162.9
328.4764,1050.3
328.487,139.6
328.4933,468.2
328.5025,592.8
328.51,374.1
328.7571,357.4
328.7646,340.2
328.8411,69.7
328.8469,440.7
329.0016,130.4
329.018,413.4
329.096,924.8
329.2661,480.1
329.3367,123.9
329.5564,160.7
329.5628,640.3
329.6905,414.9
329.9325,204.5
329.982,221.9
330.0589,115.1
330.1972,818.2
330.3858,448.3
330.5037,20
330.5809,20.2
330.6777,180.6
330.6869,216.3
330.8875,119
330.9769,106.7
331.0083,24.6
331.0453,85626.3
331.0541,836236.8
331.1617,246.4
331.2611,21.8
331.3135,77.8
331.3476,292
331.584,95.8
331.7127,389.4
331.7461,77.1
331.8303,76.8
331.8375,129.7
331.8805,182
331.9044,214.2
331.9399,19.1
331.9811,701.8
331.99,109.7
332.0252,110.5
332.0479,3779.3
332.0575,72701.3
332.1171,219.4
332.1375,69.5
332.1896,164.2
332.2052,283.2
332.2441,165.4
332.3284,193.5
332.3769,144.4
332.4052,839.8
332.5125,173.1
332.5338,77.4
332.6464,20.9
332.7877,17.2
332.891,170.6
332.9218,117.5
332.9611,680.5
333.0405,174.9
333.0523,50248.7
333.0579,7560
333.0831,194.2
333.1518,648.6
333.3845,240.2
333.4115,729.9
333.5411,384.7
333.5984,366
333.6275,99.2
333.7619,175.9
333.778,92.3
333.8035,719.2
333.8134,124.4
333.866,178.4
334.0557,3929.8
334.0904,33.1
334.1384,552.3
334.2241,315.5
334.7291,166.9
334.7395,186.8
334.7777,18.6
334.8373,25.5
334.861,414.4
335.0382,103
335.1671,1635.1
335.2716,18.9
335.2831,593.1
335.6329,751.2
335.6432,299.9
335.7244,145.8
335.7408,267.5
335.8782,81.5
336.012,46.5
336.0302,105.2
336.1583,647.6
336.1712,527.1
336.1803,544.3
336.3745,180.1
336.4205,18.8
336.6068,132.2
336.7844,727.5
336.8777,499.5
336.8979,353.5
336.977,19.4
336.9998,24
337.0363,11969.9
337.0497,21299.6
337.0622,565731.1
337.1605,286.1
337.1823,788.3
337.2318,783.7
337.2491,82.8
337.2742,11013.8
337.2902,72.1
337.3027,18.5
337.4123,160.2
337.4864,18.5
337.5624,496
337.7409,300.8
337.7699,87.9
337.8664,597
337.887,21.1
338.0399,226.5
338.0497,154.5
338.0655,53102.8
338.0939,686.2
338.1042,304.2
338.2771,985.2
338.3082,200.1
338.3317,340.4
338.3418,21.5
338.3914,22.2
338.3975,435
338.4694,160.6
338.5638,377.9
338.6412,176.5
338.6843,198.2
338.6884,215.8
338.7078,771.6
338.7394,703.6
338.7518,100.2
338.9006,91.6
338.921,564.2
338.9946,205.4
339.0383,3807.7
339.0471,899.4
339.0659,4342.2
339.1983,52.4
339.2895,4688.7
339.4207,224.7
339.4466,452.7
339.5588,227.9
339.6013,19.8
339.8258,19.3
339.9131,248.6
339.9667,730.3
339.9758,1883.2
340.3194,806.8
340.4664,18
340.5499,120.6
340.6226,417.9
340.6695,83.3
340.7422,95.5
340.7822,837.6
340.8266,328.9
340.8834,80.6
341.0176,61.9
341.0372,298.2
341.0715,285.6
341.2105,311.7
341.239,19.5
341.2856,262.5
341.3054,5824.5
341.349,984.4
341.555,136.7
341.6021,23.2
341.6078,218.7
341.6155,214
341.6569,472.6
341.7724,315.2
341.8029,595
341.9695,189.1
341.977,739.9
341.9887,123
342.0153,9825.7
342.0932,793.7
342.1576,76.9
342.1794,171.1
342.2988,741.7
342.336,716.5
342.578,517.7
342.6704,19.8
342.7112,19.9
342.7578,766.9
342.7906,144.6
342.8865,521
342.9766,743.3
342.9893,1594
343.039,328.8
343.1949,11303.1
343.2499,104
343.3195,93.7
343.431,116.6
343.5783,209.3
343.7244,670.3
343.8396,334
343.9884,1009
344.014,165.9
344.1474,304.7
344.1903,743.3
344.2618,474.5
344.293,19.6
344.406,821.5
344.659,672.8
344.6981,297.3
344.747,741.8
344.8997,232.1
344.9102,578.8
344.9382,682.2
344.9663,556.3
345.008,92.2
345.1741,281.6
345.2071,157.2
345.2624,167.3
345.5291,417.8
345.5437,249.4
345.5857,160.9
345.6694,132.3
345.8619,669.8
345.8741,195.8
345.9838,48496.2
345.9978,90.3
346.0101,327.9
346.0207,825.1
346.0411,205.5
346.0878,803.7
346.5824,505.9
346.7173,431.6
346.7625,343.6
346.8239,81.1
346.8447,124.6
346.941,231.7
346.9874,1458
347.0176,7151.7
347.0668,517.7
347.1736,96.1
347.1885,199.9
347.2713,101.7
347.4595,18.4
347.6121,338.2
347.7815,21.1
347.8248,183.7
347.9121,163.4
347.9429,333.5
347.9657,152.5
348.0208,81.7
348.1813,134.2
348.2514,228.9
348.302,20.7
348.7416,547.4
348.7857,277.1
348.8143,1410.6
348.8425,293.1
348.9016,218.1
348.9371,221
348.9907,23.6
349.0179,2402.8
349.0628,279.8
349.1279,401.7
349.2696,75.1
349.4335,652.8
349.5148,202.5
349.8337,260.1
350.0192,643.4
350.5388,94.9
350.8835,339.8
350.9443,199
351.0149,1018.2
351.0403,470.4
351.1806,167.3
351.281,211.8
351.352,218.1
351.3971,71.5
351.4406,86.4
351.5972,18.2
351.6806,562.9
351.7593,21.8
351.7918,219.4
351.8072,646.1
351.849,325.2
351.9279,25.6
351.9682,79.6
351.9835,698.2
351.9985,76.9
352.0904,128
352.3113,129.9
352.4101,349.3
352.5687,125.3
352.7784,74.6
352.8526,185.6
352.8978,597.4
352.9877,304.2
352.9912,334.9
353.0272,121352.9
353.0361,197325.9
353.2675,90.2
353.3109,106
353.3339,581.8
353.4915,264.8
353.5897,313.2
353.7805,151.9
353.79,199.9
353.8122,95
353.9329,293.6
354.0304,10163.8
354.0395,18149.6
354.1457,152.7
354.2195,242.3
354.3416,381.8
354.4165,75.5
354.6647,182.3
354.6915,21.8
354.8179,172.9
354.8415,103.3
354.8652,181.6
354.8952,483.4
354.9374,681.1
354.9906,401
355.0118,1178.7
355.0344,11661.4
355.0582,254.2
355.0702,556.6
355.1374,97.8
355.3819,75.4
355.4221,95.1
355.5216,222.1
355.5779,246.4
355.595,116.4
355.6615,132.6
355.6791,99.4
355.7045,465
355.9068,449
355.9162,512.9
356.0151,28.5
356.037,162.5
356.0744,197.6
356.1462,114.1
356.2358,120.1
356.2764,89
356.3011,323.6
356.305,358.2
356.3175,199.8
356.3976,709.2
356.452,173.1
356.9051,127.3
356.9214,685.8
356.9292,121.6
357.0087,346.3
357.111,165.8
357.2322,98
357.3,436.7
357.4031,738.4
357.4236,95.5
357.4359,87.4
357.661,111.4
357.6712,385.7
357.6987,108.8
357.7055,524.7
357.9771,1253.8
358.0878,476.9
358.1489,122
358.3174,91.2
359.0073,336.7
359.0316,16915.9
359.0441,405718.9
359.0571,84.5
359.1262,794.8
359.1668,519
359.2127,157.6
359.3726,141.6
359.3852,624.4
359.3987,308.3
359.4072,546.2
359.4121,100.1
359.4216,104.9
359.4461,451
359.4557,285.7
359.4579,279.2
359.4647,922.9
359.479,367.9
359.4898,30
359.4976,317.1
359.5096,172.5
359.5149,590.1
359.5201,837.7
359.538,209.1
359.5452,978.8
359.588,17.9
359.5941,251.7
359.6578,68.6
359.9612,362.8
360.0222,440.4
360.0314,438.9
360.0475,38497.4
360.2968,74.4
360.3244,211
360.4781,548.2
360.5792,144.7
360.6357,550.9
360.6695,197.2
360.7159,106.2
360.7262,229.8
361.0127,1490.7
361.0203,8300.6
361.0294,257.1
361.0475,566
361.1056,506.5
361.2742,787.3
361.484,233.8
361.7458,683.8
361.7508,18.5
361.8027,20.4
361.9578,12750.5
361.9668,18.2
362.0094,23.2
362.1965,171.3
362.2196,293.2
362.4021,322.7
362.4351,222.3
362.4743,19.3
362.4944,87.1
362.6907,287.2
362.927,1027.4
363.0233,83.9
363.1811,374.6
363.6313,155.6
363.6644,20.2
363.7178,696.2
363.8725,18.6
363.9234,131.8
363.9575,114.8
363.9627,188.9
363.9973,4000.8
364.0502,19.6
364.0665,262.4
364.0851,122.3
364.4332,447.5
364.5024,244.6
364.7892,150.2
364.9342,130
364.9666,91.8
364.9874,19.7
365.1052,1113.3
365.2013,84.8
365.2689,72.4
365.3107,226.6
365.3693,173.2
365.4668,328.4
365.4965,158.1
365.6118,329.8
365.7598,142.2
365.95,108.8
365.9862,119.6
365.9947,870.4
366.0978,87.3
366.1927,487.5
366.4142,98.5
366.6444,17.5
366.8237,323.1
366.8724,953.4
366.9132,591.1
367.0044,329.5
367.3107,706.5
367.3403,530.1
367.4676,18.3
367.4731,128.1
367.5873,420.4
367.5928,301.4
367.7316,248.5
367.9637,546.5
367.9918,2864.1
368.0027,991.9
368.0164,301.3
368.108,236.2
368.1124,92.3
368.1792,271.8
368.2219,100.1
368.2462,245.5
368.3587,18
368.3844,18.4
368.5092,78.1
368.5188,136.3
368.6266,89.8
368.8887,599.2
368.96,766.2
368.9752,20.1
368.9864,180.6
369.0002,15953.2
369.01,5086.6
369.1695,22.4
369.198,346.8
369.2446,74.8
369.3151,387.6
369.3454,21.5
369.3529,237.9
369.4834,171.2
369.7502,20.5
369.7688,410.4
369.8967,356.1
370.0031,215.1
370.0358,445.5
370.1404,123.3
370.2889,435.2
370.3492,613.1
370.6666,85
370.9543,904.8
370.9684,70.9
370.9999,3370.7
371.0252,695.2
371.066,590.4
371.1532,131.7
371.1951,199.5
371.2127,92.3
371.2303,186.9
371.6639,93
371.8405,892.4
372.0514,152.5
372.1115,91
372.119,229.2
372.1262,440
372.295,815
372.571,131.7
372.5841,171.6
372.6077,21.9
372.7157,81.3
372.7378,532.1
372.9482,227.3
372.995,690.5
373.1493,96.4
373.1969,776.9
373.3569,187.5
373.6074,366
373.9136,110.8
373.9432,254.6
373.9496,47.5
373.9653,213.8
373.9826,236.7
374.0157,404.6
374.0389,21.8
374.0604,306.7
374.3896,417.7
374.4859,107.5
374.5751,82.9
374.9148,324
375.0092,119550
375.0181,110334.8
375.0335,96.6
375.186,19.6
375.449,192.6
375.6702,19.6
375.7081,545.8
375.8476,215.9
375.9511,409.5
375.9654,24.9
375.9874,79.2
376.0123,8448.9
376.0214,10234.8
376.129,92.4
376.1538,17.9
376.2145,116.3
376.2561,99.8
376.2991,452.5
376.3605,998.3
376.4659,337.2
376.5452,188.2
376.5727,340.3
376.8028,133
376.9206,579.9
376.9414,994.1
376.9941,2485.3
377.0165,5201.7
377.4229,78.8
377.5853,337.8
377.6935,158.7
377.8845,163.8
377.931,340.9
377.9761,93
378.0789,126.8
378.1276,626.5
378.2078,181.1
378.3037,16.5
378.3216,133.3
378.3345,115
378.5169,101.9
378.6269,385.9
378.752,23.4
379.2217,231
379.2464,497.5
379.3371,82.3
379.3698,101.4
379.5173,91.3
379.9041,253.6
379.9232,115
379.9693,266.4
380.0431,156.6
380.0954,167.1
380.1274,897.6
380.1646,328.9
380.3718,498.9
380.4291,503.8
380.5406,357.2
380.6104,18.9
380.7203,83.2
380.7622,113.6
380.7703,1006.5
381.0137,26186.8
381.0261,235951.8
381.2483,241.5
381.2707,118.6
381.3566,536.1
381.4388,172.3
381.4866,120.1
381.6391,794
381.7986,110.2
382.0293,22031.7
382.1579,693
382.2169,77.9
382.2428,87.2
382.6355,761.7
382.7675,1093.5
382.7858,22.2
382.8347,243.8
383.0296,290.8
383.1164,171181.2
383.2963,20.8
383.4618,17.1
383.5175,726.8
383.9332,19.8
383.95,166.8
383.9656,1697.5
383.979,183.1
383.9872,214.7
384.03,528.6
384.0368,85.8
384.0728,204.5
384.1198,16913.4
384.2541,99.2
384.3011,121.9
384.3674,142.1
384.3773,109.2
384.5545,113
384.7046,437.2
384.7267,453.7
384.764,536.2
384.8382,188.9
384.851,217.7
384.8788,167.9
384.8892,71.5
384.9736,1387.5
385.0835,19.1
385.1152,88.1
385.2617,123.9
385.2736,157.9
385.4218,17.1
385.5047,828.6
385.6085,91.6
385.6206,76.3
385.6883,85.1
385.7132,153.6
385.8289,597.1
385.9439,17.9
385.9794,12532
386.0712,125.9
386.4193,387.4
386.5074,631
386.5769,160.1
386.7369,623.9
386.9739,476.4
387.197,223.1
387.3356,178.6
387.3896,84
387.574,329.1
387.7569,761.8
387.859,85.7
387.9784,1332
388.0498,74.6
388.1286,599.2
388.1872,615.8
388.2564,593.1
388.2676,18.8
388.365,640.4
388.3862,177
388.4866,570.3
388.5802,164.6
388.6421,19
388.713,411.6
388.7718,427.6
388.8568,21.1
388.8861,582.5
388.9056,429.7
388.968,158.3
388.9731,137.8
388.9928,93.1
389.0736,709.9
389.2386,309.4
389.2658,131.6
389.2806,96.2
389.3454,535.5
389.4985,99.2
389.5526,162.1
389.561,515.4
389.6443,618.4
389.9736,49279.5
389.9841,143.9
389.9946,22.4
390.1121,599.9
390.2371,77.3
390.2793,157.3
390.4902,315.8
390.7095,473.6
390.7439,271.1
390.7994,929.1
390.8522,313.7
390.9187,1025.6
390.9286,1514.1
390.9507,691.6
390.9753,7596.5
390.9825,26042.7
390.9921,12131.8
391.0141,156.8
391.0249,189.5
391.0462,95.1
391.1142,108.3
391.2139,761.8
391.3854,95.5
391.4057,20.1
391.4539,205.6
391.5545,410.9
391.6633,173.3
391.6774,164.2
391.7889,90.9
391.8946,92.6
391.9836,334
391.9951,356.4
392.0047,44.7
392.0771,397
392.1797,23.1
392.1987,231.1
392.2112,19
392.2566,234.5
392.3538,373
392.4092,85.8
392.6503,96.5
392.6609,128.9
392.7083,84
392.7963,3176.7
392.8343,344.3
392.9714,68.3
392.9818,3357.5
393.1026,310.9
393.2974,20.7
393.3342,77.9
393.3853,398.2
393.4251,302.6
393.5706,119.9
393.6992,431.5
393.7983,20.6
393.9868,139
394.4052,82.9
394.8316,419.6
394.9777,590.7
395.1139,93.7
395.1311,434.5
395.2199,88.1
395.2374,95.5
395.3303,572.5
395.783,20.9
395.9413,1157.2
395.9707,364
396.223,91.9
396.3186,69.4
396.4303,163.6
396.745,329.9
396.7828,21.7
396.9912,149830.2
397,72922
397.1428,616
397.2978,291.7
397.3308,73.3
397.5374,108.6
397.5614,303.7
397.7067,154.2
397.7917,135.5
397.8172,182.7
397.8474,288.3
397.9241,180.4
397.9566,86.6
397.9672,21.5
397.9943,12569.9
398.0033,3044.1
398.1261,674.5
398.2418,4630.2
398.2879,355.7
398.4308,177
398.6219,637.6
398.6346,87.1
398.7006,88.7
398.7408,1939.6
398.7685,132.8
398.7845,788.7
398.8767,341.6
398.9471,118.4
398.9858,19.7
398.9981,1263
399.0368,73.2
399.1229,77.5
399.2093,248.7
399.2383,400.2
399.2469,606.6
399.2626,93.3
399.5369,17
399.609,169.1
399.771,748.6
399.8731,111.9
399.9592,165
400.0568,91.5
400.4254,74.2
400.4389,95.3
400.7379,484.9
400.8274,1305.3
400.9855,1353.9
401.0126,303.1
401.1323,72.9
401.2864,149.8
401.3496,253.8
401.4834,125.4
401.7417,199.3
401.862,289.2
401.8955,93.4
401.953,1902.1
402.1865,479.2
402.3922,133.2
402.4566,98
402.8218,93.8
402.8739,312.6
402.9389,746.2
403.008,231276
403.4311,17.9
403.4495,628.4
403.5021,116.5
403.551,87.2
403.7403,318.3
403.7651,19.4
403.7917,74
403.9095,24.1
403.9423,2232.5
403.9517,399.5
403.9707,67.9
404.0113,19066.5
404.0227,18.5
404.0301,109.7
404.1023,366.6
404.2516,18.4
404.2977,22.5
404.359,117.3
404.4802,424.1
404.5475,314.9
404.5645,221.3
404.6857,366.9
404.7167,516
404.8524,19.9
405.0115,1074.4
405.2726,425.4
405.4945,165.8
405.5754,85
405.7753,163.1
405.8008,834.7
405.9247,673.2
405.9476,27643.2
406.0857,171.9
406.1457,318.8
406.2088,598.8
406.3297,946
406.5123,81.7
406.6825,921.1
406.772,1079.7
406.9131,20.9
406.9298,670.9
406.9547,1889.5
407.1444,378.1
407.2994,145.8
407.3323,95.7
407.853,225.3
407.8939,658.8
407.9068,165.5
407.9456,253.4
408.0348,292.5
408.2396,135.1
408.4267,19.4
408.4535,553.8
408.4925,774.7
408.5629,85.8
408.7329,421
408.77,2768.4
408.9568,205.4
408.9841,1535.4
409.048,113.8
409.1146,22.6
409.1336,237.4
409.2739,257.7
409.3345,299.5
409.3719,198.2
409.6692,501.2
409.6847,509.5
409.961,460.8
409.9717,85.9
410.0372,190
410.069,263.8
410.5099,391.2
410.6113,21
410.6973,548
410.8469,76.1
410.8915,296.4
410.969,91.8
411.035,89.1
411.1751,421.4
411.3276,154.4
411.4439,317
411.6187,446.5
411.6534,194.9
411.8331,18.9
411.9648,116.1
412.1351,442.2
412.1958,383.9
412.2343,453.6
412.2772,187
412.3135,250.3
412.3216,1791.4
412.567,296.8
412.7182,400.3
412.7792,668.4
412.7854,351.4
412.8024,160.3
412.9643,41651.7
412.9739,10051.1
413.2664,4618.4
413.3249,248.7
413.9395,218
413.9663,496.2
413.9742,88.9
414.2702,378.3
414.2902,219.1
414.3702,297.1
414.4753,363.9
414.5267,105.4
414.7149,1267.2
414.9016,99.6
414.9094,222
414.9637,1245.5
414.9977,837.1
415.0366,28.2
415.0798,117
415.0876,23.2
415.1488,122.2
415.2243,836.6
415.3502,345.2
415.5112,548.3
415.6477,286
415.8154,122.4
415.8599,303.9
415.9822,97.4
416.0459,303.5
416.1351,11838.5
416.2144,19128.2
416.3523,118.2
416.5752,111.9
416.7655,230.1
416.8261,270.9
416.9557,471.3
416.9898,314.6
417.0027,103.9
417.119,125.2
417.2178,1361.7
417.2701,1042.8
417.3413,77.6
417.3747,17.3
417.4119,101.2
417.5957,222.1
417.8668,88.2
417.8739,558.7
418.3594,74.1
418.5098,611.7
418.6674,183.6
418.7981,688.5
418.8453,450.7
418.884,148.2
418.9069,91
418.9819,79949.2
418.9922,115.2
419.2515,87.7
419.3669,367.9
419.5873,413.8
419.6083,18.4
419.727,339.7
419.9147,97.8
419.9562,20.4
419.9598,18.7
419.9634,19
419.9853,3545.5
420,76
420.0694,78.1
420.0784,77.5
420.1251,82.4
420.2325,122.1
420.3008,98.7
420.4776,20.3
420.5464,86.5
420.5935,205.2
420.6146,457.4
420.9277,451.9
420.9803,954.6
421.1921,318.9
421.2214,309.5
421.2901,85.9
421.4812,121.6
421.5024,644.6
421.5891,17.8
421.8262,178.6
421.9216,6586.8
422.3539,107.1
422.7208,566.3
422.7448,296.5
423.4678,299.6
423.502,265
423.9493,98.7
423.9874,132.8
424.2532,156.7
424.443,95.1
424.7292,206
424.7448,463.9
424.8369,71.5
424.8533,19.4
424.892,322.4
424.9584,92
425.0191,757.8
425.0283,27.5
425.3517,404.4
425.71,92.3
425.8065,18.9
425.8356,720.9
425.8761,329.9
425.9455,235.5
426.0157,19.4
426.0786,564.7
426.2165,18.9
426.2425,506.4
426.4693,20.1
426.7736,18.5
426.8313,378.4
426.8692,325.7
426.9415,64.2
427.084,24.8
427.1471,138.3
427.3054,20
427.5031,18.4
427.6649,234.6
428.0187,352.5
428.3805,157.6
428.4383,102.3
428.4901,79
428.5049,251.2
428.5405,92.5
428.7447,92.6
428.8275,22.4
428.9375,9425.3
429.006,131.4
429.036,744.8
429.0501,219.5
429.0554,190.1
429.0772,234.1
429.0889,452.1
429.187,19.4
429.3103,265.7
429.4229,218.7
429.4833,351.4
429.5175,18.7
429.8994,823.1
429.9578,485.9
430.2195,138.5
430.6951,471.9
430.7062,726
430.9142,733.6
430.9372,265
431.1444,284.6
431.2059,149.3
431.2168,1641.9
431.9499,57.6
432.042,349.8
432.0662,25.6
432.6543,712.1
432.6934,395.5
432.733,149
432.9053,539.1
432.9486,672.1
432.9736,128.7
433.0786,128.6
433.1015,373.8
433.2084,466.4
433.2278,18.5
433.4299,223.1
433.5764,87.8
433.8168,20.2
433.8338,71
433.8436,334.1
434.1611,421
434.2552,241.9
434.3495,176.2
434.5276,558.2
434.7721,560.7
434.8865,358.5
434.9208,584.3
434.956,13469
435.0158,89.7
435.0291,477.4
435.1455,343.4
435.5126,163.4
435.6132,123
435.6258,157.7
435.7672,20.7
435.9793,111.4
435.9931,154.6
436.06,195.6
436.3235,133.5
436.4124,26.2
436.5282,199.9
436.6853,23.7
437.1975,397.5
437.2198,224.6
437.3609,773.3
437.388,148.4
437.7199,200.1
437.9591,341.4
438.0252,624.4
438.049,81.7
438.1946,1134.4
438.4832,348.2
438.6981,116.9
438.7738,81.7
438.8576,146.2
438.9385,173.4
438.9725,2707.4
438.9848,8822.4
439.5354,197.7
439.9823,20.3
440.2451,176.4
440.272,152.3
440.3991,680.7
440.4796,375.6
440.5683,463.5
440.6476,277.5
440.689,479
440.7088,20.7
440.7255,970
440.735,239.1
440.9443,18.4
440.9685,242
440.9825,489.4
441.0611,206
441.2678,95.3
441.2981,154.4
441.3334,715.2
441.5325,677.1
441.6864,294.2
441.7217,227.6
441.7972,429.2
442.0866,401.8
442.1653,534.4
442.3007,27.1
442.4925,310.9
442.5579,22.5
442.9167,88.2
443.2931,184.3
443.6262,163.7
443.9719,82
444.081,489.8
444.4055,382
444.4635,347.9
444.6738,450.4
444.9013,84
445.0105,130.7
445.2328,739.7
445.2712,197.3
445.4948,19.3
445.6103,117.7
445.629,113.2
445.9215,117.7
446.0521,313.4
446.0966,117.7
446.2349,703.6
446.2741,210.2
446.4029,661.4
446.6708,461.1
446.7319,27.5
446.8207,81.7
446.9103,162.7
447.3242,92.6
447.4245,84.5
447.4576,444.8
447.5495,350.1
447.5728,224
447.7856,814.9
447.8662,166.4
447.9324,6232.5
447.9899,118.8
448.0345,242.2
448.6833,230.7
448.7573,350.3
448.9325,2935.9
449.0005,879.5
449.1542,2252.6
449.2491,86.8
449.3297,890.8
449.5706,72.3
449.6093,446.3
449.8444,90.2
449.9298,588
449.9404,97.5
449.9807,203.1
450.003,603.3
450.0195,126.3
450.1458,222.2
450.1576,419.4
450.1965,465
450.5553,195.4
450.5862,323.8
450.7528,1123.3
451.0619,513.8
451.1304,70
451.1502,178.2
451.2863,456
451.3911,201.2
451.6033,105.6
451.7931,91
451.8018,71.1
451.9042,637
452.0601,284.3
452.1811,22.3
452.2184,93
452.4415,220
452.8484,483.6
453.0829,269.6
453.0942,634.2
453.2753,21.4
453.4582,493.1
453.519,18.8
454.2697,306.3
454.2917,22.2
454.32,321.3
454.6301,752.5
454.6958,123.1
454.7777,327.9
454.8761,146.5
454.9234,582.8
454.9302,519.9
454.9499,38124.3
455.1377,105
455.2404,376.9
455.523,314.6
455.5401,218.3
455.6019,294.9
455.9526,2067.8
456.3094,686.6
456.868,156.7
456.9245,392.1
456.9469,6740.6
457.0454,337.6
457.0963,39.8
457.1295,615.7
457.2328,6726.2
457.3178,830.5
457.3335,237
457.5745,83.4
457.8061,315.9
457.9512,123.6
458.0346,252.7
458.0417,297.5
458.0596,138.2
458.2452,604.2
458.5166,19.2
458.5295,75.7
458.5627,18.7
458.6836,285.7
458.8227,288.8
458.9607,971.6
459.1828,89.6
459.2485,289897.6
459.3672,18.8
459.5679,113.2
459.6512,576.8
459.8058,157
459.9437,53.2
459.9765,526.6
460.0469,649.8
460.0644,339.7
460.1548,231.1
460.2392,181.9
460.2519,56673
460.3969,18.4
460.467,402.7
460.8187,200.8
460.9085,139.8
460.9666,75500.2
461.0877,859.1
461.1549,176.1
461.2552,3927
461.5365,142.3
461.5812,316.5
461.6377,320.4
461.6469,69.4
461.7978,462.8
461.8345,265.6
461.9016,134.4
461.9697,4584.7
462.031,119.5
462.179,292.2
462.234,119.1
462.3277,149
462.3595,589.2
462.5963,99.4
462.7112,534.6
462.8803,20.3
462.9635,19721.2
463.4161,87.8
463.6616,327.4
463.6768,115.4
463.7933,306.1
463.8445,619.8
463.9062,1589.7
463.9676,929.1
463.9858,650.7
464.2012,253.2
464.3688,345.8
464.3726,343.3
464.4521,464.8
464.5292,113.7
464.6383,18.6
464.7385,113
464.8451,480.9
464.875,115.9
464.9786,7420
465.636,177.8
465.666,380.7
465.7386,78.7
465.7707,401.8
465.904,258.3
465.9187,499.3
466.4417,20.6
466.5671,289.6
466.6374,133.6
466.7287,1130.6
466.8208,343.3
466.912,110.1
467.1055,188.5
467.1712,128.2
467.5515,92.8
467.5566,106.2
467.7292,189.6
467.7705,22.4
468.2096,74.3
468.3092,848.2
468.3397,71.4
468.543,167.5
468.6766,198.5
468.7171,581
468.8035,745.2
468.8224,318.6
468.8798,152.1
468.9216,329
469.1393,25.9
469.4825,210.3
469.8492,477.7
470.186,458.3
470.5493,310.7
470.6754,374.9
470.9238,15166.5
470.9953,2774.7
471.0613,150.5
471.2357,490.9
471.4343,200.3
471.5752,676.7
471.5873,106.1
472.046,133.7
472.3534,84
472.3845,221.8
472.6609,188.1
472.7888,128.2
472.8284,304.8
472.8543,21
472.872,118.3
472.9207,2910.9
472.973,106.5
472.9885,944.3
473.0038,115.5
473.0235,815.6
473.0354,424.5
473.1603,245.1
473.2632,2723.4
473.4649,224.9
473.479,20.1
473.8032,203.1
473.8816,319.5
473.977,95.9
474.0508,119.6
474.1207,122.1
474.1363,109.6
474.3785,724.5
474.5011,357.4
474.5796,86.6
475.2223,13237.3
475.2838,283.4
475.2964,71.2
475.9439,368.4
476.0248,79.4
476.0485,17.8
476.0889,75.3
476.1787,198
476.2251,1632.3
476.5683,18.7
476.9405,41246.7
477.0541,105.4
477.0957,1035
477.2016,584.3
477.2192,946
477.2738,355.7
477.2849,435.5
477.3989,649
477.5415,148.1
477.5653,90.9
477.6388,107.3
477.8398,159.9
477.8808,520.2
477.9173,18.4
477.9277,462.5
477.9436,1872.2
478.0516,112.9
478.0803,226.2
478.3295,42807.5
478.4461,486.1
478.4586,157.3
478.6565,21
478.6833,77.5
478.8813,355.3
478.9379,11059.5
479.0034,592
479.0958,115.6
479.1899,1240.3
479.2814,81.5
479.3332,7925.1
479.3588,23.9
479.7733,772
479.9439,631.1
480.0251,19.3
480.1284,720.3
480.337,933.4
480.6495,441.4
480.7435,630.9
480.9075,387.3
480.9528,1538.4
481.038,111.9
481.0915,1678
481.2338,996.1
481.2569,75.3
481.3808,140
481.7426,217.3
482.0951,326.4
482.299,495.8
482.3594,1508.8
482.7678,184.4
482.9541,272.2
483.0611,190.3
483.0866,71.5
483.098,19.8
483.2485,126179.6
483.4011,117.1
483.7403,113.9
483.8537,223.4
483.9086,111.3
483.9912,84.4
484.0818,92.9
484.0942,206.1
484.2518,25601.9
484.3566,144.7
484.3674,457.4
484.421,641.8
484.8088,418.8
484.9401,232.8
484.9683,220.4
485.123,240.9
485.2641,69437.6
485.33,508.5
485.9419,117.1
486.0119,115.1
486.1033,223.8
486.2677,14804.6
486.3899,95.9
486.462,19.1
486.7857,377.2
487.2646,816.8
487.2797,85048.5
487.5839,436.9
487.7625,150.4
487.7775,128.9
487.9828,120.3
488.2831,17683.5
488.4391,209.7
488.5631,460.9
488.6818,374.3
488.7598,89.1
488.8493,238.3
489.0943,247.4
489.1564,85.8
489.1949,461.9
489.2644,207.8
489.2759,170.4
489.2859,1148.5
489.2952,82.5
489.3107,1076.7
489.3509,156.1
489.6484,113.1
489.6976,409.8
489.8861,352.9
490.1391,78.7
490.2456,127.5
490.2905,5271.8
490.7644,446.7
490.9848,169
491.0966,632.6
491.2501,78.8
491.2931,437.7
491.3901,345.7
491.494,647.3
491.8497,18.6
491.9172,122
491.9505,97.2
492.065,325.2
492.0837,427.5
492.1154,95.5
492.1806,100
492.5714,349.6
492.6226,321.6
492.6633,304
492.7154,299.9
492.9143,6256.9
493.1841,689.5
493.2615,716.9
493.4015,17.1
493.5559,84.1
493.9055,20.8
494.0219,328.6
494.0282,499.7
494.324,5142.9
494.4501,98.9
494.4897,653.4
494.5766,236.8
494.725,181.9
494.8858,156.2
494.9117,1219.8
494.9679,568.5
495.2727,212.7
495.3267,690.6
495.3515,341.1
495.4929,266.6
495.9213,75.2
495.9415,124
496.0331,177.4
496.1379,250.5
496.144,246.4
496.2169,21
496.2777,82.1
496.3401,407638.8
496.7126,17.3
496.9314,558.7
497.0552,156.4
497.2693,186.6
497.2883,807.2
497.3228,274
497.3433,98021
497.4279,338.1
497.7358,19
497.8352,93.9
497.8823,364.5
498.1149,343.3
498.1431,313.5
498.3461,9207.6
498.4666,561.4
498.6411,135
498.6844,615.5
499.0431,18.8
499.129,666
499.2221,7690.9
499.2851,157.5
499.3363,495.8
499.3527,234
499.4623,125.4
499.6491,936.6
499.831,84.3
500.0209,479.7
500.2388,69.1
500.2761,408.7
500.3122,663.7
500.682,525.3
500.984,1177
501.2376,3028.1
501.2508,93.2
501.2616,361.3
501.3496,507.3
501.5023,523.3
501.5144,199.4
501.6275,374.4
501.8384,723.7
502.0864,171.7
502.1722,113.2
502.2923,950.2
502.3293,17813.5
502.747,22.4
502.7572,106.9
502.9645,128.2
503.108,151.5
503.2204,190.7
503.2527,1570.3
503.333,1474.5
503.4098,120.8
503.6276,98.4
503.666,160.1
503.7295,766.2
503.9411,23.4
503.9953,132.8
504.106,20.8
504.125,19.4
504.3065,2431.8
504.3452,6309.9
504.4694,229
504.4911,18.7
504.5801,90.8
504.705,106
504.7202,363.4
504.8299,270.9
504.8456,134.2
505.0821,118.7
505.2321,1376.3
505.4956,21.7
505.7424,18.2
505.8911,842.3
506.0564,122
506.1123,116.4
506.2148,133.1
506.3604,8507.1
506.512,92.1
506.5438,338.4
506.8922,1808.4
507.0405,193.8
507.1798,675.3
507.211,20.4
507.2485,23292
507.2627,19.9
507.3421,17.4
507.4679,191.1
507.6705,652
507.7545,73.2
507.8405,17.9
507.8895,130.5
508.0371,142.9
508.1129,568.9
508.2044,596.6
508.2516,3089.3
508.3741,303.6
508.5192,95
508.6242,436.6
508.726,164.8
508.753,97.4
508.8349,332.7
508.8889,1796.3
508.9794,484
509.005,2755.3
509.0187,83.7
509.264,5825.7
509.3006,582.6
509.8506,115.1
510.2504,301.5
510.2656,782.2
510.3555,4687.8
510.37,143.9
510.4136,203.1
510.7131,21.5
510.8875,574
511.0802,352.9
511.0868,342.9
511.1237,33.3
511.288,375.6
511.3483,78.9
511.3717,92.8
511.539,389.8
511.5932,342.5
511.6716,437.1
511.9407,247.6
511.9536,295.4
511.9707,135.6
512.0966,167.4
512.2332,503.8
512.2451,144.1
512.3365,21.7
512.9083,18848.3
513.0122,208.4
513.3956,205.6
513.4895,653.5
514.0093,189.1
514.1352,496.4
514.2152,167
514.2938,266.5
514.5214,221.6
514.5854,638.3
514.8626,96.3
514.9054,8604.8
515.2575,19.8
515.3857,341.7
515.6431,277.8
515.7574,856.4
515.8367,109.1
515.9007,134.2
515.9365,478.5
516.0714,86.7
516.0815,87.9
516.1555,88.4
516.3063,11853.9
516.3951,97
516.4901,402.5
516.5594,285.4
516.5705,259.6
516.6342,310
516.6544,479
516.9022,808
516.949,293.8
517.0052,558.1
517.0694,20.9
517.2688,419
517.3099,831.8
517.4285,539
517.6233,123.3
517.6511,165.4
517.9206,870.6
517.9626,409.9
518.0005,71.2
518.0877,775.7
518.1672,20.2
518.1901,392.7
518.2743,99.8
518.3219,560146.4
518.3674,331.8
518.6512,146.3
518.8011,229
518.8858,764.3
518.9252,29593.5
519.0711,573.5
519.0976,811.9
519.1961,83.1
519.2468,21.9
519.3253,133388.4
519.5155,178.8
519.9286,1376.9
520.1265,419.7
520.252,182.6
520.2815,564.9
520.34,166799.7
520.3609,143.4
520.5296,157.2
520.6322,244.5
520.691,76.4
520.7567,694.5
520.9223,18237.9
521.0088,141.1
521.0809,229.1
521.1091,141.5
521.3198,210.6
521.3433,42939.9
521.3996,1336.9
521.594,115.1
521.8601,88.8
521.926,459.8
521.9773,690.5
522.0238,20.5
522.1006,100.5
522.3556,110410.3
522.6919,191.2
522.919,1922.7
522.9369,4725
522.9662,1519.1
522.9833,275.3
523.3589,26366
524.0501,113.2
524.0842,381.3
524.1029,805
524.1286,1181.9
524.1811,806.4
524.2489,61.7
524.2617,449.6
524.2992,131.3
524.3467,326.9
524.3714,153851.7
524.4689,571.6
524.5972,406.9
524.853,230.5
524.934,569.8
525.0047,87.7
525.0834,90.5
525.3747,44527.1
525.6112,604.4
525.8715,669.5
526.0785,92.6
526.1446,713.5
526.3285,3007.6
526.3774,1959
526.7788,130.9
526.9815,397.3
527.1608,776.4
527.19,19.8
527.2626,129.4
527.4074,450.6
527.7062,866.9
527.8875,193
527.9423,235.6
527.9921,715.2
528.2457,125.6
528.2794,708.5
528.4014,23
528.5042,105.6
528.6335,747.9
528.7102,70.2
528.8173,325.8
528.8824,7143.2
528.9108,19.8
528.9543,1946
529.0462,200.5
529.1161,641.2
529.3058,26
529.4001,18.4
529.536,592.5
529.6902,104.3
529.886,644.3
529.988,226.9
530.1053,301.2
530.3238,972.1
530.3541,834
530.3999,808
530.4465,79.8
530.6567,500.1
530.7098,21
530.7692,236.6
530.8795,2423.4
530.9542,213.9
530.9766,383.7
530.9988,651.8
531.0491,77.8
531.335,446.7
531.3748,602.8
531.3874,283.7
531.6728,85.5
531.8149,119
531.856,516.5
531.9529,161.4
531.995,273.9
532.1806,523.2
532.2196,21.4
532.2811,2750.2
532.3379,6794.1
532.6472,18.4
532.9659,1981.3
533.1911,74.2
533.1987,68.2
533.3414,1874.3
534.0313,170.3
534.1263,16.9
534.296,149396
534.3255,102
534.6241,20.5
534.7148,583.1
534.868,297.3
534.899,14507.2
535.0227,122.1
535.2991,35038.3
535.3152,628.4
535.4223,775.8
535.5783,102.6
535.6075,377.4
535.9022,386.4
535.9902,111.6
536.2943,7096.9
536.7386,659.1
536.7862,300.8
536.8962,9590
537.2967,549
537.3425,632.3
537.4324,78
537.9796,1038.1
537.9948,478.1
538.0614,92.7
538.2683,855.8
538.4204,91.6
538.4575,844.1
538.5687,408.4
538.5861,78.6
538.8928,1537.6
538.9106,1691.8
538.9347,663.7
538.9521,125.3
540.0268,462.1
540.3047,580.1
540.5469,128.2
540.6109,232.7
540.8166,685
540.8355,396.4
540.9214,21.7
541.1351,330
541.4921,512.2
541.6734,81.5
541.7394,94
542.0855,232.8
542.2805,27.4
542.322,223989.3
542.4506,967.4
542.4767,94.4
542.6457,744.8
542.8084,90.3
542.8344,103.9
542.9962,198
543.1368,410.3
543.3253,60273.9
543.361,21.2
543.5058,18.5
543.9598,107.1
544.1719,774.1
544.2722,659
544.3377,154092
544.6258,326.2
544.7455,478.5
544.8558,733.9
544.9277,662.3
544.9484,1700.1
545.3412,39897.6
545.4081,685.8
545.7066,104.3
546.1402,119.2
546.3533,190345.7
546.7456,131.6
546.8533,457.7
546.9073,94.9
547.1079,88.3
547.3567,53051.8
547.8622,27.4
547.9846,281.1
548.3595,3310.1
548.6723,159
548.695,321.4
548.7489,118.9
548.7523,174.6
548.7566,101.8
548.8282,89.4
549.0247,732.5
549.1595,77.1
549.3618,530.2
549.5713,366.6
549.6858,227
549.7222,362.2
549.8772,94.5
550.0084,80.8
550.0671,704.6
550.1731,769.6
550.2034,171.2
550.8318,349.8
550.873,2828.8
550.931,585.7
551.0018,24.9
551.1605,399.4
551.1876,510.6
551.4572,599.8
552.2789,820.4
552.3095,454.6
552.3292,439.9
552.6529,478.3
552.6834,420.1
552.7188,219.1
552.8706,1715.1
552.9333,18.3
553.0054,638.3
553.0838,279.7
553.6988,499.4
553.8029,120.1
553.8313,117.4
554.033,815.1
554.3557,588.4
554.3627,561.3
554.6858,23.8
554.8641,393.7
554.929,273.2
555.0953,672.6
555.2168,271.5
555.3056,193.2
555.4752,91.7
555.4887,172.7
555.5436,818.1
556.0834,653.5
556.098,116.2
556.372,288.6
556.7721,151.9
556.9712,97.3
556.9948,106.3
557.0964,449.4
557.157,22.5
557.459,438.1
557.5915,909.9
558.0986,561.6
558.296,63427.9
559.0034,807
559.2399,352.4
559.2993,14900
559.4356,315.2
559.7474,19.6
559.8025,187.2
560.015,246.3
560.0495,21.5
560.2954,2072.5
560.3113,36841.7
560.4464,166.7
560.6095,134.8
560.7621,86
560.9223,533
561.0569,494.2
561.3149,7775.8
561.7487,690.9
562.3273,45667
562.4435,93.7
562.5799,119
562.8863,385.8
563.1592,566.9
563.2979,202.1
563.3185,773.9
563.3305,10614.7
563.5635,676.9
563.6724,108.1
563.705,338.9
563.8665,602.6
564.3229,1288.3
564.3263,1300.1
564.3434,90
564.4353,711.9
564.5011,864.8
564.6261,1146
564.8725,186.7
565.0707,87.6
565.4669,24.4
565.7622,438
565.9836,206.5
566.2098,85.3
566.307,18.9
566.3221,35749.8
566.8472,21.3
566.9635,1023.4
567.0481,329.5
567.1035,432
567.3253,7310.5
567.3446,160.9
567.4406,212.8
567.4644,20.2
567.4916,283.9
567.5679,24
567.7365,89.4
567.7832,498.9
568.0136,540.9
568.3374,16941.4
568.3667,890.5
568.4524,254.3
568.89,230.2
568.8944,212.1
568.9004,98.6
569.1457,107
569.2455,737.2
569.3414,2676.2
569.6148,101
570.014,187.6
570.2072,75.2
570.3551,401.7
570.4513,568.7
570.4979,240.8
570.8666,4641.6
570.8915,752.7
570.9108,371.5
571.0613,619.9
571.5692,416.5
571.8899,458
571.9484,117
572.325,528.7
572.8639,6268.7
572.8853,162.4
572.9795,440.8
573.6547,19.7
573.8154,97.9
573.8448,82.3
573.8701,586.5
573.9488,189.9
573.9686,226
574.0063,219.8
574.2835,2302.2
574.5016,21
574.5826,672.4
574.8635,634.6
575.0401,275.2
575.1289,308.2
575.3009,154.7
575.5039,11140.1
575.544,22.1
575.8332,195.8
576.094,84.4
576.1709,460.6
576.2809,6929.1
576.5075,1418.2
576.6315,337.5
576.8839,7236.9
576.9575,22.4
577.1858,20
577.2831,680.7
577.3592,557.2
577.5177,514.5
577.6676,250
577.9256,357.4
577.9562,170.3
577.9629,227.4
577.9676,221.9
578.2242,225.4
578.2313,221
578.2771,2729.9
578.8811,8449.8
579.53,128.3
579.5735,247.1
579.6012,421.4
579.7299,134.9
580.6521,123.9
580.7139,82.9
580.7354,22
580.8786,2605.9
580.8957,2498.8
580.9547,446.3
580.9829,520.3
581.2961,825.1
581.5837,191.1
582.074,325.9
582.1011,219.4
582.1199,234.5
582.2082,748.3
582.2312,752.9
582.2674,1127.9
582.2959,7970.6
582.3239,354.1
582.363,369.6
582.3719,397.1
582.3836,397.1
582.4586,150
582.675,574.7
582.8073,332.6
582.8928,732
582.9054,79.4
583.0734,126.9
583.238,25.8
583.2559,1285.6
583.2984,1150.2
583.4149,547.4
583.7092,392.7
583.9643,162.1
583.9751,367
584.012,278.5
584.0418,277.1
584.2398,453.4
584.3098,1038
584.3599,75.6
584.4032,234.5
584.4517,113.6
584.6718,775.6
585.0693,120.6
585.0737,125
585.0814,101.8
585.2714,5347.2
585.6194,506.5
585.7839,215.3
585.8408,20.2
585.8574,162.7
585.8744,142.1
586.3088,4666
586.374,22
586.5663,86.3
586.6794,602.1
586.808,909.1
586.8412,1728.3
586.9122,337.4
587.0013,170.3
587.0302,358.2
587.1187,20.7
587.162,235.3
587.3124,517.5
587.7154,356
587.8242,270.4
588.1029,123.1
588.3508,604.1
588.3753,160.5
588.8381,2002.2
588.8958,490
588.9116,581
588.9603,159.2
589.1418,103.3
589.1584,322
589.3195,123.1
589.3912,859.2
589.4424,91.9
589.5121,18.3
589.5993,335.2
589.8924,191.9
589.9143,190.6
590.2315,101.9
590.321,3475.4
590.8342,672.1
590.925,1039.7
591.1586,349.6
591.2556,19.7
591.4471,326.9
591.5349,21.3
591.563,129
591.8946,570
591.9083,226.9
592.2546,1756.8
592.337,798.3
592.8579,4987
592.9194,738.8
593.1709,152
593.2127,615.8
593.5315,377
593.644,464.7
593.694,86.1
594.5517,614.3
594.6192,89.8
594.645,343.9
594.778,114
594.8547,5166.7
594.9234,138.3
595.138,226.8
595.1816,390.4
596.0145,657.6
596.496,85.1
596.5629,541
596.8522,1284.7
597.002,813.4
597.4277,160.1
597.4516,1966
597.4856,11579.4
597.5552,125
598.2427,80.7
598.3076,496.6
598.3543,90.5
598.4451,773.8
598.4521,1038.1
598.458,1125
598.4892,2189.1
598.7324,125.7
598.8678,522.2
599.1297,23.5
599.3126,794.1
599.4635,212.1
599.5032,3388.5
599.5216,85.1
599.5815,322.6
599.6624,465.7
599.9121,603
599.9682,123.7
600.1254,20.6
600.2809,1974
600.4043,257.9
600.8552,451.2
600.9003,144.6
601.1077,214.8
601.2848,402.5
601.332,578.5
601.519,851.7
601.5422,167.6
602.0356,363.9
602.3199,102.1
602.843,21.9
602.9038,484.3
602.9773,469.5
603.4272,26
603.535,1075.5
603.6587,276.1
603.855,169.9
603.8937,159.6
604.2779,249.6
604.3125,1984.2
604.5401,148.3
604.6738,75.5
604.7153,642.4
605.0641,18
605.2037,815.5
605.5023,592.8
605.5245,335.5
605.7937,87.7
606.6442,328
606.8156,611.2
606.8999,380.9
607.0045,94.1
607.171,525.2
607.5076,702.6
607.9383,476.3
608.0992,396.4
608.646,142.6
608.7366,180.4
608.8579,678.4
608.9469,96.4
609.0909,159.8
609.3635,208.8
609.5046,502.3
609.6676,20.1
609.7896,387.7
610.0005,319.5
610.0484,283.8
610.7893,165.1
610.826,1502.7
611.0828,86.7
611.2333,464
611.3256,116
611.3642,20.5
611.4832,613.9
611.5969,85.2
611.6927,18.7
611.7282,183.8
611.825,190.1
611.8578,135.6
611.9477,161.8
612.0037,529.1
612.5318,199.3
612.6282,220.6
612.9125,414.5
613.1529,131.1
613.2688,81.5
613.6998,263
614.4579,232.6
614.8372,230.6
615.1335,80.3
615.3069,210.5
615.5281,303.9
615.6353,445.3
615.8303,282.1
616.0688,707
616.1148,477.4
616.1773,246.9
616.3956,103.2
616.5152,145
616.6571,72.5
616.6877,89.6
616.7685,292.8
616.8368,213.6
617.2128,19.4
617.4764,1368.7
617.583,345.2
617.6832,95.7
617.7898,94.8
617.8512,317.6
618.1059,197.2
618.5957,291.3
618.7325,89.7
618.8071,247.7
618.9453,18.8
619.1186,208.4
619.4914,186.3
619.7,960.2
619.7337,101.5
619.9808,88.3
620.1065,451.7
620.1211,19.5
620.3926,20.6
620.4158,237.3
620.4765,771.8
620.5491,405.7
620.6498,305.9
620.6747,326.7
620.7091,363.5
620.7476,108.1
620.8143,453.3
620.9722,91.6
621.1388,128.7
621.4441,541
621.4864,4938.8
621.8662,314.6
621.8929,401.5
622.0355,303
622.2041,280.3
622.3225,300.1
622.4902,158.8
622.7398,89.6
623.03,724.3
623.1359,11365.4
623.2021,154.9
623.4249,457.2
623.444,96.3
623.4641,379.3
623.7408,90.8
623.9946,687.4
624.1396,1106
624.8281,22.5
624.8961,619.2
625.1643,19.5
625.1908,78.5
625.2536,592.7
625.4707,704.6
625.4889,218.9
625.5184,813.3
625.5953,76.1
626.1394,96
626.3403,342.1
626.3772,829.6
626.6494,74.3
626.8768,197.8
626.9202,520.7
627.0631,213.2
627.2386,152.5
627.452,494.7
627.4849,238.7
627.5202,134.3
627.5354,132.1
627.6066,309.8
627.8444,138.3
628.0575,377.7
628.3065,93.1
628.409,315
628.5389,854.4
628.6914,73.8
628.7866,88.4
628.9097,99.8
629.0136,418.7
629.1528,22528.8
629.469,166.4
629.7674,202.3
629.9622,101.1
629.9942,156.2
630.1388,125.5
630.1565,1782.8
630.2299,170.4
630.3403,316.7
630.5015,677.4
631.1747,128.5
631.2,477.1
631.2693,306.3
631.6095,402.9
632.0565,236.5
632.3268,81.1
632.3535,738.7
632.9033,145.2
634.1566,313.1
634.1699,115.2
634.194,279.3
634.4981,503.1
634.8425,2383.1
635.0674,755.6
635.1286,215.5
635.5841,18.7
635.7691,597
635.9384,370.3
636.7187,613.9
636.8402,3800.3
637.0516,134.6
637.0849,623.9
637.3924,122
637.5324,247.1
637.8823,289
638.0562,112.6
638.1033,162.8
638.1316,769.7
638.3323,138.8
638.4301,231.5
638.4526,1134.8
638.5628,98.5
638.7555,227.3
638.8357,738.6
638.965,648.8
639.0753,20.1
639.5544,471.3
639.7536,374.3
639.8085,560.9
639.891,708.9
640.0723,22.9
640.2504,500.5
640.2569,483.7
640.2619,428.5
640.7091,345.7
640.8573,340.4
641.1885,319.4
641.2444,497.4
641.4185,310.2
641.7839,342.4
641.9371,614.5
641.9956,71.7
642.2154,236.4
642.2293,452.1
642.6295,479.1
643.2093,168.7
643.2284,20.9
643.3373,20
643.6058,389
644.1512,20.4
644.4477,167.8
644.8562,76.7
644.8839,563.1
644.9075,118.4
645.0082,122.9
645.1176,9186.7
645.168,408.5
645.2003,476.4
645.3313,813.4
645.4,328.1
645.4491,831.6
645.6265,151.1
646.1219,899.4
646.1355,715.5
646.1526,21.6
646.322,344.7
646.4541,829.5
646.4895,311.4
646.5668,840.9
646.7598,95.7
646.7952,344.7
646.8661,366.3
646.9538,96.8
646.9949,102.9
647.0622,200
647.0949,122.8
647.2462,144.5
647.2648,662.9
647.2921,20.4
647.5228,180.7
647.7059,133.6
647.8962,19.2
647.9453,98.7
648.0772,309.6
648.1801,180.8
648.2444,96.8
648.3859,920.7
648.7134,86.1
648.7909,99.3
648.8636,114.1
649.2205,141.3
649.3055,578.5
649.3706,195
649.4663,515.9
649.4699,520.3
649.4796,403.4
649.6697,117.7
649.6914,20.4
649.7786,173.1
649.8015,243.9
650.1029,334.6
650.3237,88.5
650.4037,90.3
650.4397,2588.7
650.4647,190.8
650.484,91.7
650.5953,359.8
650.7777,118
650.8175,1056.7
650.9722,303.7
651.0273,18.3
651.1348,33193.7
651.3924,182.8
651.4894,601.4
651.5038,116.1
651.6521,218.2
652.1384,4595.4
652.2772,381.1
652.4669,308.8
652.7099,198.4
652.8127,1918
652.9768,104.8
653.1123,837.2
653.4682,683.7
654.0436,81.9
654.3063,229.4
654.6558,506.2
654.6819,321
654.7012,320.7
654.7197,415.1
654.7384,403.3
654.811,1112.2
654.9445,228.4
654.9723,18.8
655.244,438.9
655.5499,109
655.5554,117.1
655.5624,129
655.5998,388
656.0542,260.3
656.0791,80.2
656.7427,82.6
656.914,121.6
657.14,189.4
657.1836,550
657.4693,127.6
657.91,173.9
658.0694,153.4
658.613,422.2
658.6732,182.1
658.8307,106.5
658.976,392
659.0727,86
659.8149,88.5
659.9031,187
659.9906,89.1
660.0285,175.6
660.0814,1791.2
660.4477,292.8
660.7653,391.6
660.9792,84.6
661.0827,4741.7
661.2544,21
661.4367,387.3
661.5646,233.4
661.7311,158
662.1301,120.7
662.2776,86.1
662.3839,103.8
662.4415,94.5
663.0086,554.4
663.2933,334.7
663.3861,121.2
663.7509,293.4
663.9451,114.6
663.9992,122.1
664.0337,417
664.3308,158.2
664.3819,468.6
664.4672,576.7
664.5506,78.8
664.6853,259.5
664.7468,311.3
664.8419,76.4
664.9047,390.1
664.9939,122.1
665.265,92.2
665.3596,18.8
665.9496,87.5
666.076,153.4
666.3035,105.8
666.4841,3633.8
666.5999,379.4
666.6154,573.9
666.7286,511.4
666.8025,20.2
667.0993,16949.4
667.1621,424.7
667.835,609.7
668.1039,1620.6
668.1239,238.3
668.9796,453.2
669.005,85.5
669.1483,665.5
669.3733,80.1
669.4054,386.8
669.5771,88.6
669.7665,160.5
669.8952,665.4
669.9622,353.7
670.0499,245.1
670.1397,301.8
670.5853,159.5
670.6508,139.3
671.0581,118.8
671.1398,229.6
671.3956,216.6
671.5462,282.7
671.7167,272.4
672.0789,551.3
672.1059,202.8
672.4217,3531.2
672.6341,177.8
672.9655,116.2
673.0474,320.2
673.1167,53200.2
673.1634,832.4
673.2812,322.2
673.6282,92.4
673.9485,749.3
674.1202,9272.5
674.1627,142.1
674.1777,873.7
674.4183,475.4
674.9703,308.2
675.091,127.2
675.1236,611.4
675.5443,17579.5
676.0475,4645.8
676.1384,301.6
676.5481,3402.6
676.6023,116.6
676.8424,287.7
677.0541,496.2
677.1512,96.1
677.8747,479.7
677.9045,84.4
677.9987,733.3
678.3077,286.9
678.9221,146.7
679.3432,91
679.3956,71.1
679.6175,393.8
679.7837,130.8
679.9719,633.1
680.6894,229.5
681.2162,117.5
681.3981,405.4
681.7426,18
681.8568,185.7
682.0643,10743.4
682.2835,775.3
682.457,525.9
682.6538,20.2
682.7706,599.7
683.0659,1402.1
683.1411,264.5
683.1623,383.5
683.2813,298.4
683.4939,724.8
683.8167,89.9
684.8368,312.2
684.9531,194.7
685.0546,384.3
685.0732,341.6
685.204,313.4
685.4364,3984.5
685.5971,770
685.6606,76.9
686.4017,324.5
686.4394,483.8
687.0697,105.1
687.3633,367.1
687.9277,97.3
688.1531,262.8
688.2148,70.6
688.3805,76.7
688.4157,1661.4
688.5403,166.4
688.7579,687.9
689.0808,14729.1
689.5087,184.7
689.5599,6302.4
689.7271,539.7
689.9227,273.4
690.0852,1649.3
690.3164,168.7
690.4084,318.1
690.4869,384.8
690.563,823.2
690.6191,138.8
690.6987,643.9
690.7728,444.5
691.1894,623.8
691.2487,460.1
691.9913,77.6
692.2781,22
692.3855,71.2
692.7506,105
692.8316,90.4
692.8928,256
692.9257,215.9
693.1399,320.2
693.2341,516.7
693.7735,126.2
693.9189,19.5
694.6654,2142.8
694.7981,578.2
695.0988,38379
695.4013,192.1
695.46,1055.5
695.479,287.1
695.6063,490.5
696.0789,90.8
696.1022,5146.2
696.2424,21.4
696.7564,105.4
696.7891,449.5
697.0782,207
697.4256,121.4
697.5264,20251.4
697.8574,173.8
697.9863,85.9
698.0295,2996.1
698.0702,75.8
698.2897,695.7
698.5297,2145.2
698.8287,113.6
698.9277,100.6
699.0278,333
699.5312,338.6
699.8102,102.2
699.8525,91.4
700.0501,569.9
700.4508,740.6
700.9426,26.1
701.103,466.1
701.2073,432.9
701.2671,82.3
701.5598,32104.5
701.7911,759.8
701.9967,70.2
702.0576,141.8
702.3422,1724.6
702.3913,743.1
702.5638,11205.1
702.6438,186.2
702.7272,129.8
703.4144,18.7
703.4653,152.1
703.5756,99707
704.0463,8736.6
704.1075,102.2
704.2061,449
704.4481,4551.5
704.5543,19.4
704.579,40705.6
704.6672,117.6
704.7236,138.2
704.9763,104.4
705.0532,2121
705.1429,306.9
705.226,80.5
705.3365,89.3
705.3624,504.4
705.4423,591
705.4737,241.1
705.582,3645.6
705.8756,603.6
705.941,246.1
706.4674,449.7
706.5397,3128.8
706.5842,763.1
706.7027,140.6
706.7912,107.2
707.3454,83.4
707.5434,544.4
707.5627,718.8
708.0806,110.2
708.1712,678.9
708.452,470
709.2027,445.5
709.9956,549
710.3747,1001.3
710.43,748.8
710.5571,350.3
710.6557,78.2
710.7724,1136.9
710.7902,94.3
711.0636,9513.3
711.0736,12577
711.2599,653.7
711.5412,4778.8
712.0657,410.1
712.1573,343.7
712.2006,132.4
712.6458,122.5
712.7547,799.8
712.7906,103.8
712.9917,31.7
713.0601,773.3
713.1017,130.4
713.1366,20.5
713.3472,126
713.5009,1851
713.7082,96.5
713.9301,141.5
713.9989,1239.2
714.2069,89.3
714.2343,75.1
714.2487,74.1
714.3617,568.7
714.3668,565.9
714.5337,275
714.8069,80.4
714.8273,393.5
714.875,222.4
714.9153,395.9
715.142,20
715.3587,264
715.8872,20.4
716.3592,101.8
716.4496,727.5
716.5589,379.5
716.6285,897.7
717.0806,18996.1
717.1539,316
717.2265,691.4
717.2351,779.1
717.4621,164.4
717.5936,380.2
717.6179,706.5
717.7964,385.7
717.9449,96.2
718.0272,83.2
718.0846,1559.4
718.3739,703.3
718.5748,386.7
718.8453,411.4
718.9185,87.6
719.0773,301.7
719.1259,244
719.4189,331.9
719.5867,488.1
719.8133,120.4
719.9001,128.2
720.0101,1530.4
720.0215,1699.9
720.1696,283.9
720.2467,538
720.3694,535.6
720.4074,222.6
720.6881,76.9
720.9,18.2
721.2406,18.4
721.4786,61491.2
721.6397,80.7
721.9094,324.5
722.2583,20.7
722.3345,401.8
722.4492,130.7
722.482,27893.6
722.5704,22.5
722.7937,630.8
723.0746,228.1
723.1319,634.5
723.169,81.6
723.4706,1682.3
723.495,7739.3
723.5418,29290.6
723.6711,684.5
723.6952,552.5
723.8387,79.1
723.8576,350.7
724.0318,81.7
724.2701,408.8
724.3211,751.5
724.4977,2008.4
724.5454,8647.9
724.9406,399
725.2129,260.5
725.3348,203.1
725.5576,74030.6
725.7786,98.8
726.0286,4517.9
726.4059,254.3
726.5612,29311.5
726.824,17.4
727.0381,1305.5
727.0856,453.2
727.1493,77
727.4542,715.8
727.4716,86
727.5643,3200.6
728.003,197.3
728.2816,780.6
728.5234,2122.9
728.8528,540.7
729.019,602
729.5149,468.4
729.5916,11005.7
729.6267,471.3
729.7223,772.4
729.7591,795.1
729.7872,77.8
729.8692,17.6
729.9901,593.8
730.1282,812.1
730.2149,146.5
730.2481,154.8
730.5387,13697.1
730.5689,876.9
730.5958,3047.9
730.7777,667.3
730.9802,93.8
731.0665,281.1
731.1616,430.4
731.1953,415.7
731.4464,125.6
731.4676,156.6
731.4997,308.9
731.5413,4422.2
731.6075,6272.9
731.705,901.4
731.7265,256.1
731.8855,176
732.1303,82.6
732.2317,696.6
732.4807,808.9
732.5071,303.9
732.5547,38572
732.6097,3414.1
732.7991,406.8
732.8965,275
733.0558,7131.2
733.2358,110
733.2676,595
733.3846,113.4
733.5578,15439.5
733.6126,338.1
734.0581,257.3
734.2219,290.8
734.3769,202
734.5143,93.8
734.5707,7418.9
734.7769,170
734.8437,625
734.972,80.1
735.2809,760.1
735.4956,308.8
735.5741,2098.8
735.7317,441.9
735.8289,178.4
735.9854,228.9
736.0124,575.3
736.0849,361.7
736.3071,309.7
736.4127,80.6
736.6539,195.3
736.8582,540
736.9511,666.2
737.0849,450.9
737.3968,373.1
737.4525,11218.7
737.5719,650.4
737.7325,880
738.4569,3075.2
738.8623,108.4
738.8875,1022.9
738.9629,146.3
739.0303,170.3
739.0632,12658.5
739.1097,517.5
739.1392,244.1
739.2282,81.3
739.4966,610.3
739.5154,2292.4
739.7133,91.9
739.7225,94.6
739.8575,338.1
739.9147,230.1
740.116,799.7
740.4084,148.4
740.4553,287.7
740.5184,1762.2
741.0057,849.7
741.1553,122.8
741.27,185
741.4336,223.9
741.5313,7426.6
741.6033,87.1
742.0022,1092.3
742.0311,115.5
742.0378,116.3
742.1381,101.3
742.1767,739.3
742.5355,1122.8
742.5753,15265.9
742.6902,87.2
742.7843,618
743.0171,250
743.4034,732.2
743.5787,1526.8
743.6577,466.9
743.8986,703.8
743.9979,95
744.0674,20.8
744.0901,594.5
744.468,714.5
744.5555,7069.4
744.5914,16053.8
744.724,171.5
745.1104,70.1
745.3345,477.7
745.4783,25936.5
745.5581,1133.1
745.5955,2023.2
745.6777,785.8
745.8651,613.9
746.1219,312.7
746.2685,203.6
746.4817,5601.4
746.571,4220.4
746.6071,3303.7
747.2198,838.7
747.3563,846.4
747.4946,11187.6
747.573,457.8
747.5941,609
748.0109,1614.2
748.3697,102.8
748.4963,1444.7
748.5795,636
748.6102,169.7
748.6771,83
749.0171,1057.6
749.1134,108.1
749.1318,364
749.2157,723.5
749.5102,6243
749.5352,675
750.4345,105.9
750.5129,536
750.9025,392.4
750.9509,185.7
751.0972,619.7
751.2146,97.7
751.3732,103.7
751.5272,397.3
751.5739,6005.1
751.7302,109.6
751.9284,283.1
752.5211,11721.2
752.5764,1525.2
752.7523,544.8
752.9043,107.4
753.0723,843.6
753.2256,95.7
753.3119,900.4
753.3374,804.9
753.5238,2697.7
753.5846,474.7
754.1303,163.9
754.2517,188.3
754.537,28780.8
755.0377,2189.9
755.3051,461.3
755.3811,201.3
755.54,11127.9
756.5544,49406.2
756.7109,141.9
756.8891,250.6
757.4789,224.9
757.5302,461.2
757.5578,17502.3
757.6187,2742.9
757.7018,287.1
757.9735,344.2
758.1051,18.7
758.4843,403.1
758.5106,141.8
758.5325,94.2
758.5703,1380547.8
758.6731,18.3
758.7644,481
758.8178,82.2
759.4598,222.4
759.5737,612839.9
759.6387,1167.1
759.9815,170.4
760.0407,153.9
760.061,318.7
760.1488,1046.9
760.2427,18.7
760.2542,19.1
760.3854,535.9
760.5874,307907.9
760.7023,19.3
761.0446,4366
761.3674,736.8
761.4524,1336.8
761.4929,1087.9
761.5898,153486.9
761.6694,94.6
761.8551,184.9
762.0501,259.5
762.0863,455.4
762.5924,34984.3
762.8287,173.7
763.1556,77.8
763.2417,157.8
763.4575,187.8
763.5188,360.4
763.5949,1203.2
763.6611,1418.3
763.9739,381.3
763.9848,384.9
764.1137,109.5
764.1831,403.7
764.3012,432.3
764.3538,435.5
764.5566,2590.9
764.7117,101.5
764.9851,952.3
765.3153,20.2
765.698,84.3
765.9633,98.4
766.0177,378.8
766.0454,644
766.5364,1996.7
766.575,35462
766.7162,18.1
767.0075,258
767.03,790.2
767.2082,1040.5
767.4942,490.2
767.5403,879.9
767.5789,13593.3
768.0797,185.4
768.269,90.6
768.4097,197.2
768.5537,4811.3
768.5914,45604.3
768.6789,453.7
768.7063,23.1
768.8635,176.7
769.1341,453.8
769.2059,89.2
769.4453,170.7
769.4793,1007.4
769.5943,19700.1
769.8412,476.2
769.9934,350.9
770.138,161.6
770.1852,81.9
770.2951,108.8
770.4926,807.7
770.5328,627.3
770.5694,1040.1
770.6083,7127.5
770.6497,162
770.9946,1971
771.0711,127.2
771.4954,1117.5
771.6097,1291.3
771.7462,525.1
772.0347,322.9
772.0621,369.8
772.3323,20.1
772.5859,21446.3
772.6215,240.5
772.6505,322.3
772.8251,182.6
772.8824,622
772.9321,372.9
773.3278,207.5
773.5257,571.8
773.5898,7925
773.6532,138.6
773.7167,147.1
773.7716,691
773.8995,157.6
773.9988,124.4
774.2012,88.9
774.4367,511.4
774.6032,767.1
774.7119,857.5
775.5245,101.4
775.6501,369
775.7731,450.4
775.8513,75.5
776.1079,489.2
776.9583,408.2
777.0092,5180.8
777.0448,618.5
777.1164,716.9
777.6177,110.2
777.8104,386.1
778.0477,755
778.5365,29505.8
778.5934,771.5
778.6184,123.4
778.8621,593.9
779.3645,75.7
779.5397,10237.9
779.8482,355.8
780.4545,553.5
780.5523,763831.5
780.589,468.2
780.6876,582.1
780.9915,848.2
781.3502,133.2
781.4356,242.3
781.5558,339658.7
781.6188,653.6
781.9701,120.6
781.9929,880.6
782.5005,81.9
782.57,694271.1
782.603,200.1
782.6696,80.7
782.7157,175.7
783.0265,4896.7
783.3789,24.6
783.4511,22.3
783.5734,328941.6
783.7968,166.5
783.9679,110.4
784.4204,137.2
784.5867,338964.8
784.7503,227.1
785.2705,497
785.4467,279.6
785.5897,171373.6
785.6544,6767
785.7049,380
786.241,714.7
786.602,404827.5
786.6581,550.5
786.8975,269.7
786.9273,562.7
786.9627,125.8
787.1089,218.3
787.6052,200139.1
787.6705,2969.9
788.0437,103.9
788.5572,9022.9
788.6056,31642.1
788.6221,14807
788.6738,111.5
788.8362,109.5
789.0023,562.5
789.1289,22.3
789.4197,994.1
789.5312,340.7
789.5617,2275.5
789.6223,7650.6
789.771,18
789.791,373.8
789.8265,107.9
790.0456,1220.2
790.3147,199.5
790.4427,159.2
790.5735,20074.4
790.6247,187.1
790.7508,142.3
790.7996,355.1
790.9686,110.8
791.0518,727.3
791.3364,83.4
791.4714,139.8
791.5754,4135.6
792.0419,201
792.1006,1164
792.3249,163.5
792.4487,325
792.551,1202.4
792.5904,13573.1
792.7008,394.6
792.9072,602.1
792.9857,819.8
793.2549,475.8
793.4317,440.3
793.5944,3535
793.6684,182.3
793.7038,614.4
794.0582,921.9
794.2747,109
794.511,1292.5
794.5687,7793.4
794.6068,44407.3
794.722,114.7
794.7538,637.6
794.9668,92.2
795.2471,18.9
795.4514,19.6
795.5728,2008.4
795.6102,20119
795.7508,107.3
796.3302,21.3
796.5261,135550.2
796.5854,7341
796.6237,8999.4
797.3648,502.5
797.5295,62293.9
797.5898,1967.1
797.6251,3216.4
797.8247,163.4
798.29,180.1
798.3566,493.7
798.5436,26226
798.6024,201.7
798.8652,952.9
799.0032,1025.6
799.0471,742
799.4502,979.2
799.5457,8004.8
799.6721,452.5
799.914,98.8
800.5202,18.6
800.5407,1176.8
800.866,2130.6
800.9197,101.7
801.0554,901.9
801.4506,198.7
801.4754,826.9
801.4964,301.6
801.62,152.5
801.6815,123.2
801.8841,1862.3
802.1266,666.3
802.2134,426
802.2443,92.2
802.3363,1026.2
802.4615,209.9
802.5366,13109.2
802.791,650.2
802.9339,877.8
802.9494,1059.4
803.3514,160.4
803.5119,232.8
803.54,5465.2
803.8628,19.3
804.2104,18.5
804.3066,153.2
804.5523,308860.3
805.3502,546
805.5556,143551.4
805.6333,1315.1
806.1338,391.7
806.2606,305.4
806.35,230.5
806.434,154.2
806.5694,265625.6
806.7921,18.9
806.9273,355.7
807.0458,493.5
807.3556,456.2
807.432,825.4
807.5725,130664.7
807.6366,112.8
807.8666,366.3
808.3435,546.1
808.4801,162.2
808.5849,239899.6
808.7072,164.4
808.7972,121
809.0988,20.5
809.588,121413.2
809.7609,183.3
809.8807,386.9
810.1135,626.8
810.3155,216.5
810.4592,191.7
810.6022,173967.7
810.7103,83.2
810.9946,82.2
811.201,109.9
811.335,719.3
811.434,910.4
811.6052,89342.4
811.6702,8275.8
812.0796,18.5
812.1433,106.8
812.3745,167.3
812.5793,386.7
812.6195,32865
812.673,3552.4
812.8144,88.6
812.9514,238.8
813.4021,92.3
813.6215,16925.1
813.6862,7203.6
813.7469,95.7
813.85,144.5
813.9349,1345.8
814.0779,313.2
814.3098,614.9
814.574,1532.9
814.623,901.4
814.6877,2178.1
814.9296,280.3
815.0183,1525.7
815.244,520.3
815.5395,603.2
815.8862,700.5
816.2461,19.6
816.284,177.5
816.3045,21.7
816.3896,1972.8
816.5424,254
816.5885,18052.1
817.3398,1123.1
817.4663,676.9
817.5927,8882.8
817.7155,687.1
817.829,670.5
818.0022,891.8
818.3305,119.7
818.6059,2792
818.7278,18.2
818.7812,85.7
818.8476,401.1
818.9806,174
819.0322,109.8
819.2857,293.2
819.5143,717.6
819.6081,1687.8
819.8031,377.7
820.3635,3168.6
820.5263,58907.5
820.6233,1461.6
821.0629,102.2
821.225,1515.8
821.2853,459.7
821.4516,588.7
821.5297,23944.9
821.6147,384.5
822.4667,136.6
822.543,28540.2
822.6387,242.9
822.6851,966.2
822.773,120
822.9943,83.2
823.494,320.6
823.5452,11668.3
823.7117,182.4
823.7935,330.7
823.9561,371
824.0003,342
824.3451,476.1
824.5579,33183.5
824.6403,691.5
824.9398,89.7
825.5221,149.4
825.561,10805.9
825.8216,181.5
826.4163,555.6
826.8812,239
827.8181,669.8
827.9089,19.6
827.9477,792.6
828.5522,58838.6
829.46,329
829.5557,27720.8
829.6909,299.7
829.9464,606.2
830.0303,362.7
830.1475,23.1
830.569,40878.5
831.4918,240.6
831.5219,82.8
831.572,19823.5
831.6323,136.5
831.7494,82.4
832.5843,76564.2
832.6836,352.3
833.5872,35766
833.6516,1127.8
833.9795,104.9
834.0517,274.8
834.6016,31402.7
834.656,83.5
835.0674,1970.9
835.6046,10739.6
835.6674,1533.6
835.6981,456.6
835.7829,238.1
836.0509,394.4
836.5205,684.8
836.6165,2082.3
836.9271,81
837.1728,20.9
837.477,192.3
837.509,161.4
837.7417,136.7
838.2398,276.6
838.3484,386.9
838.3722,20.4
838.51,4013.2
838.6323,238.6
838.792,133.3
838.874,428.6
839.1637,738.8
839.3279,324.8
839.6185,289.9
839.9384,768.1
840.0165,25.4
840.0764,407.9
840.1901,94.7
840.5229,375.3
840.6434,123.7
840.8674,181.4
840.8995,290.4
840.9413,180.4
840.9668,638.8
841.568,387.5
841.6395,402.7
841.9965,486.1
842.7281,21.9
842.8986,217.9
842.964,96.1
843.6151,292.5
843.9701,92
844.5252,5991.1
844.7327,350.7
844.8706,417.9
845.0599,599.1
845.3815,606.2
845.491,512.5
845.5331,176.5
845.938,19.7
846.2591,136.5
846.54,3412.8
846.6424,641.9
846.7182,476.6
846.7921,774.4
846.8521,640.9
847.6585,369.9
847.8136,87.2
847.958,84.1
848.0531,1969.3
848.2349,358.4
848.3075,16.8
848.5564,9375
848.8458,297.3
849.2553,70.7
849.2924,430.3
849.5121,108.5
849.5603,2863.7
849.8222,18.2
849.8959,165.7
850.0133,321.2
850.1178,370.5
850.5692,223.7
850.6674,236.7
850.7132,518.2
851.1002,285.3
851.5272,180.8
851.8468,700.4
851.8846,92.2
851.9198,111.3
852.0892,692.4
852.4007,131.3
852.7875,670.6
853.0731,807.3
853.215,590.5
853.3446,128.4
853.5771,247.1
854.1809,188.3
854.6642,81
854.8008,426.7
854.9207,305.1
855.1857,153.1
855.3436,72.9
855.3922,352
855.458,599.9
856.1103,144
856.3735,404.1
856.4889,346
856.5458,107.5
856.5847,2310.3
856.6082,107.8
856.9293,245.7
856.98,22.3
857.3848,140.4
857.5863,323.6
857.7783,707.1
857.8245,1554.1
858.5427,112.6
858.7547,132.6
858.8885,129.4
859.339,787.6
859.6014,133.2
860.1597,647
860.3713,22
860.7752,22
861.0132,19.6
861.2216,18.5
861.4562,90
861.5526,242.6
862.1589,250.8
862.5093,532.8
862.5553,161.3
863.2283,257.5
863.4277,16.9
863.94,221.1
864.0677,1183.4
864.0745,1224.6
864.2233,195.4
864.4064,1027.9
864.4962,331.5
865.2312,203.6
865.6016,1001.7
866.4877,605.3
866.9881,863.1
868.0918,124.3
868.1727,825.1
868.3184,144.3
868.4193,183.7
868.6033,21.4
868.8558,167.8
869.0149,869.4
869.1541,852.1
869.222,321
869.3445,298.6
869.4355,841.8
869.484,1117
869.5095,133
869.5338,763.6
869.5924,1264.5
869.6437,2166
869.6944,2335.3
869.7143,2719.1
869.7231,2516.3
869.7502,2436.1
869.8111,2841.7
869.8454,2937.6
869.8921,2059.9
869.902,2008.8
869.9688,1432.1
870.0141,775.5
870.0333,419.8
870.0745,1181.9
870.7457,214.1
870.7699,90.2
870.8193,469.9
870.9355,458.8
871.029,19.8
871.0546,116.5
871.5035,687.5
871.9502,353.4
872.1677,198.2
872.4683,353.4
872.9308,442.2
872.9712,310.1
873.3321,1216.2
873.7005,236.5
873.9962,154.3
874.0548,1183.5
874.247,435
874.3804,740.4
874.46,487.8
875.0658,686.4
875.253,190.3
875.4605,301.5
875.9884,87.7
876.2838,1059.2
876.3357,129.7
876.688,105.5
877.4075,162.3
877.5686,106.3
877.8045,102.9
878.32,124.4
878.8994,78.4
879.2132,93.7
879.411,428.9
879.9734,814.9
880.0675,96.8
880.8142,557.5
880.9617,321.9
881.898,283.2
882.0462,484.2
882.4718,134.2
882.5773,422.7
882.926,19.5
883.161,137.5
883.4075,719.7
883.6907,735.6
883.9323,635.9
884.168,544.5
884.2979,23.4
884.4656,240.4
884.5401,231.9
884.5635,18.8
884.6159,120.5
884.699,17.6
884.7351,145.3
884.9316,570.4
885.1628,1086.3
886.3104,86.9
886.365,827.6
886.7152,135.2
886.7509,139.3
886.9395,655.6
887.0104,165.1
887.1845,751.3
887.5684,109.9
887.7524,181.3
888.3927,211.3
888.7778,93.6
888.8788,605.1
888.9615,320.3
889.1785,523.7
889.5652,170.3
889.6186,184
889.8463,354.2
889.9243,118.5
889.9899,367.8
890.3824,872.4
890.4408,491.4
890.5407,121.6
890.6468,426.5
890.8607,259.1
891.0806,402.4
891.1346,527.8
891.6226,560.9
891.8686,333.2
891.9329,130.8
892.1577,690.1
892.217,821.1
892.2298,736.5
892.9075,345.7
893.4713,839.6
893.7099,489.4
893.8618,554.9
894.018,357.3
894.0434,190.8
894.6757,304.2
894.8016,353.9
894.8877,21.6
895.2927,117.4
895.3931,330.8
895.6332,915.4
895.9135,688.2
895.9508,763
896.093,239.5
896.2065,886.4
896.3993,20.5
896.4671,286
896.7431,264.8
896.9801,351.9
897.3885,258.9
897.9262,81.7
898.0714,95.4
898.1424,742.1
898.9844,233.2
899.1433,846.3
899.4592,23.1
899.6536,470.4
899.724,550.1
899.7753,507.6
900.021,21.7
900.3768,142.2
900.8753,107.6
901.1507,1267.2
901.3385,968.2
901.6905,749.6
902.0336,151.4
902.1776,307.6
902.4986,141.5
902.6224,833.8
902.8853,458.7
903.4188,98.6
903.784,305.7
903.909,1565.7
904.2106,186.6
904.4517,334.2
904.662,104.9
904.9468,452.8
904.9798,247.6
905.6513,420.9
906.3691,100.3
906.4054,85.4
907.1454,422.3
907.2778,1622.2
907.4435,118.2
908.0307,69.6
908.1899,991.3
908.4977,178.6
908.7484,451.9
909.0632,137.5
909.1063,113
909.2714,20.9
909.5468,87.1
910.069,442.9
910.5662,124.3
910.5875,601.2
910.8773,512.5
911.1084,20.3
911.4302,1401.6
913.3034,263.7
913.6845,485.6
913.9883,189.3
914.462,25.5
914.6457,125.3
915.1423,91.9
915.282,132.8
916.3632,2705.1
916.8952,333.8
916.9433,1591.3
916.9991,1752.2
917.0267,679
917.2042,280.8
917.3225,1745.9
917.8073,644.4
917.8645,19
918.0897,170.4
918.2175,193.7
918.5652,145.3
918.6047,106.7
918.8619,108.2
919.7968,783.3
919.8093,711.1
919.9324,261.9
920.1345,490.9
920.3152,317.8
921.2425,820.3
921.3126,586.2
921.6732,240.8
921.9807,258.7
922.0904,622.7
922.3551,457.3
922.7569,511.9
922.8671,24.7
923.0663,133.9
923.7586,674.2
924.2577,111.2
924.3808,244.9
924.4336,754.7
925.2744,254.5
925.3848,2533.8
925.5499,797.6
926.4088,656.9
926.6304,207.4
926.7735,103.1
927.1597,331.1
927.6187,1939.4
927.8468,557.8
928.1623,103.8
928.2181,464.4
928.5429,175.5
929.3448,801.9
930.0237,796.9
930.2642,404.7
930.3606,631.8
930.6941,586.8
930.7325,136.7
930.8263,1190.4
930.9685,18.6
931.2631,454.4
931.4844,342.3
931.7408,237.7
931.8541,79.3
931.9524,784.1
932.2208,2228.2
932.3815,1332.4
932.61,287.8
932.7282,1014.8
934.2799,106.8
934.4552,93
935.0896,659.5
935.4927,570.1
935.5888,115.8
935.6573,677.5
935.7195,1058.9
936.0232,153
936.7504,333.8
936.8299,747
936.9585,797.9
937.0211,315.7
937.141,83.3
937.3295,735
938.2032,1023.1
938.2712,113.5
938.6658,189.4
938.7777,181
938.8716,330.5
938.9343,531
939.3834,243.4
939.5378,827
939.7438,1152.9
940.2467,84.1
940.5295,173.7
941.1985,116
941.3582,138
941.4776,341.4
941.8205,674.1
942.0642,1073.6
942.7661,20.3
942.8731,2183
943.4793,105.5
943.5589,186.6
943.7534,873.5
943.9501,235.7
944.0253,634.5
944.1891,323.8
944.3009,776.2
945.17,927.2
945.4831,976.3
945.5862,1263.5
945.6575,178
945.7912,334.1
946.0626,85.5
946.308,292
946.592,20.3
946.6834,115.8
946.9167,21.1
946.9878,328.7
947.2481,777.7
947.3137,213.8
947.3832,929
947.6771,120.6
947.7955,769.5
947.9443,500.3
948.3671,820
948.5398,248.1
948.9403,396.9
949.3263,226.6
949.3608,800.8
949.4553,954.9
949.723,422.4
949.8899,181.5
950.1178,106.1
950.1615,875.1
950.2022,1145.5
950.2325,227.3
950.2779,157.6
950.3498,110.5
950.4465,1404.8
951.1243,676.4
952.5049,425.3
952.6929,1687.2
953.26,306.3
954.0477,238.4
954.2018,367.6
954.5575,200.8
954.5847,921.5
954.8177,416.7
955.0835,778.6
955.453,593.9
955.6638,23.1
955.7508,1081.3
955.8964,970
956.0046,836.9
956.0782,534.2
956.2268,533
956.5519,642.1
956.6406,136.5
956.7151,238.8
956.8148,90.6
956.8601,357.5
956.9555,74.4
957.3541,628.8
958.2738,234
958.4854,1515.7
958.9928,134.8
959.134,1430.1
959.4964,956.6
959.5208,266.2
959.853,148.9
960.0093,100.1
960.492,417.8
960.5656,418.2
960.6683,19.3
961.1217,855.9
961.3607,503
961.5793,735
961.89,161.8
961.9219,159
962.0697,679.7
962.367,558.5
962.7565,129.8
963.0594,1011.3
963.1287,900.2
963.1502,808.7
964.0173,610.9
964.4236,642.7
964.5042,830.1
964.6187,138.2
964.7866,1017.5
965.2943,1015.9
965.3977,530.5
965.4449,720.8
965.5979,129
965.9649,1882.2
966.229,787
966.276,98.5
966.4377,865.9
966.5239,20.6
966.5749,165.9
966.7128,367.8
966.7839,20.3
967.641,1145.6
968.2517,130
968.3331,988.9
968.36,709
968.4005,98.8
968.4283,913.9
969.2195,121.5
969.2999,801.2
969.4731,19.9
969.7934,23.9
969.8875,19.7
970.043,802.1
970.0855,183.2
970.2003,182.9
970.5711,301
971.2789,238.1
971.3375,290.1
971.4991,659.4
971.5564,84.3
971.5741,96.3
971.8676,350.4
972.8009,344.8
973.4617,368.6
974.1804,459.8
974.7462,17.9
974.916,136.7
975.8518,1422.8
976.0059,515.7
976.2558,560.1
976.2705,725.5
976.3272,127.4
976.4429,908.6
977.0679,1731.6
977.3961,436.9
977.4235,128.2
977.4591,1095.9
977.602,90.6
977.6777,20.2
978.2448,240.1
978.5448,480.8
978.6088,342.6
978.653,503.7
979.1364,476.7
979.2836,139.8
979.9292,152.2
980.1589,1453
980.8467,252.8
981.6496,424.9
982.0829,766.8
982.7043,956.6
983.1371,775.1
983.5928,680
983.6927,793.3
983.7524,653.7
984.0249,847.1
984.3829,18.4
984.7681,20.8
984.8173,887.8
985.151,782
985.2185,18.4
985.4245,889.1
985.5103,264.3
986.9637,433.2
987.2924,320.3
987.6585,98.9
987.7404,22.4
988.2945,843.2
988.5435,558.3
988.9132,483.4
989.3307,406
989.3885,27.3
989.4324,384.9
990.2958,18.6
990.9272,101.2
991.1411,213.1
991.4749,367.5
991.9158,18
992.0559,79.6
992.7621,461
993.1112,79.3
993.1454,1304.7
993.69,1140.2
993.9741,164.4
994.5482,410.8
994.687,622.1
994.8839,450.4
995.0897,656.8
995.2009,1056.9
995.3338,174.7
995.371,115.6
995.4135,516.5
996.2374,507.4
996.5605,229.2
996.6541,437.3
996.794,114.3
997.2377,168
997.4911,655
998.1543,1512.6
998.3874,619.2
998.7603,755.2
999.058,1524.3
999.0926,81.9
999.4413,92.1
