SPECTRUM - MS,
429.RAW,
FTMS + p ESI Full ms [50.00-1000.00],
Scan #: 1-40,
RT: 0.01-1.96,
AV: 40,
m/z,Intensity

50.0039,548.5
50.031,72.1
50.0353,479.5
50.0442,80.6
50.0515,165.4
50.0561,80.4
50.0566,17.3
50.0602,314.3
50.0654,92.8
50.0681,366.9
50.0686,858.8
50.0709,153.4
50.0748,792
50.0875,189.1
50.1073,89.6
50.1081,623.4
50.1161,17.7
50.1261,504.9
50.1268,346.9
50.1324,515.8
50.146,151.1
50.1583,732.5
50.1625,192.9
50.1648,189.6
50.1669,83
50.1875,568
50.1977,511.7
50.1988,167.7
50.2111,487
50.219,72.9
50.2302,17.3
50.2352,605.3
50.2403,518.4
50.2417,169.8
50.2458,16.4
50.2504,203.2
50.2512,72
50.2535,426.8
50.2576,342.1
50.2639,278.5
50.2661,172.5
50.2708,83.1
50.2834,276.2
50.2971,364
50.3001,680
50.3045,760.7
50.3347,259.8
50.3378,73.7
50.3402,18.4
50.3739,429.6
50.3897,625.4
50.3946,178.7
50.4157,130.2
50.4187,285.5
50.4197,109
50.4377,445.6
50.4405,130.7
50.4429,105.4
50.4532,257.1
50.4692,16.8
50.4791,106.9
50.4884,535.1
50.5007,138.5
50.5031,100.5
50.5076,125.2
50.514,248.3
50.5196,513.9
50.5208,488.6
50.5267,573.7
50.5301,1009.5
50.5307,110.6
50.5647,18
50.5749,615.9
50.5764,654.4
50.578,157.7
50.5842,354.1
50.5917,15.9
50.6029,181.8
50.6165,17.3
50.623,85.2
50.6247,124.7
50.6407,159.2
50.6409,378.6
50.6416,80.4
50.6592,17.9
50.6642,161.4
50.6821,194.6
50.6928,113.6
50.6946,121.7
50.697,143.4
50.7002,79.5
50.7041,78.9
50.7059,16.8
50.7075,188.6
50.7125,114.9
50.7278,70.7
50.7287,276.4
50.754,74.9
50.7611,277.9
50.7687,103.3
50.778,120
50.7842,370
50.7867,208
50.806,169.8
50.8351,103.3
50.8413,711.8
50.8506,197.6
50.8596,884.4
50.8659,19.9
50.8806,82.4
50.8906,232.3
50.9083,297.2
50.9152,258.1
50.9233,354.5
50.9236,393.8
50.9483,17.3
50.9523,121.4
50.9525,125.6
50.9649,545.1
50.9822,16
50.9883,503.8
51.0038,71.8
51.0136,87.6
51.0382,397
51.0453,116.7
51.0537,562.4
51.0698,137.9
51.08,213.4
51.0847,363.9
51.0864,412.5
51.0931,122.3
51.1195,178.1
51.1324,599.2
51.1411,394.6
51.1422,180.2
51.1437,183
51.1592,174.4
51.1623,75.3
51.1696,438.1
51.1723,441.7
51.1852,87.8
51.1871,381.5
51.1925,113.9
51.1936,158.3
51.2147,120.6
51.2164,76.2
51.2172,73.7
51.2284,265.7
51.2305,417.2
51.2344,20.7
51.2484,439.1
51.2637,367.4
51.2849,108.5
51.3056,102.3
51.3093,173.9
51.321,449.4
51.3331,411.9
51.3387,652.2
51.3413,81.3
51.3467,288.5
51.3673,403.4
51.3739,273.4
51.3759,18.5
51.3811,628.9
51.386,17.2
51.3887,180.7
51.3945,382.6
51.4872,86.4
51.4895,20.2
51.5393,99
51.5437,81.2
51.5521,323.7
51.5625,251.1
51.5631,91.7
51.5787,78.5
51.584,98.7
51.5949,15.5
51.5954,92
51.5979,515.9
51.6029,613.3
51.6073,364
51.6187,195.2
51.6358,633.3
51.6451,114
51.6539,18.6
51.6556,409.2
51.6598,18
51.6655,132.1
51.6692,16.5
51.6782,819.4
51.6933,111.6
51.6959,72.3
51.698,265.3
51.7067,119.3
51.7211,121.7
51.7218,327.3
51.7507,67.8
51.76,743.1
51.7704,83.5
51.773,470.4
51.7767,17
51.8076,177
51.8155,187
51.8468,15.2
51.8525,461.3
51.8614,16.2
51.8625,80.5
51.8788,70.3
51.8994,292.5
51.9046,64.7
51.9647,733.7
51.9703,15.7
51.9725,300.4
51.9829,117.1
51.9842,79.8
51.9981,750.4
52.0132,135.5
52.0153,452.9
52.0194,19.6
52.0199,417.7
52.0217,444.2
52.0277,140.7
52.0309,14.7
52.0341,802.7
52.0401,738.1
52.05,17.1
52.0665,232.4
52.0712,354
52.0849,139.3
52.0937,158.6
52.0957,123.7
52.0961,239.4
52.1012,69.5
52.1269,126.7
52.1376,333.1
52.1447,194.9
52.146,205.4
52.1535,170
52.1615,16.8
52.1885,85.8
52.2067,201.3
52.2166,106.4
52.2241,497.5
52.234,80
52.2571,513.9
52.2593,91.7
52.2675,422.9
52.2775,234.5
52.2872,466.5
52.3061,304.9
52.3407,97.2
52.3594,593.1
52.3607,976.9
52.3618,181.3
52.3671,102.9
52.3731,358.1
52.3804,263.6
52.3978,165.1
52.4066,362.9
52.4345,243
52.4395,199.7
52.4448,69.3
52.4468,198.1
52.4484,373
52.4501,532.2
52.4549,117.9
52.4617,495.6
52.4637,209.2
52.4953,113.5
52.5048,253.8
52.5055,258.1
52.5332,120.9
52.5511,95.7
52.5667,103.8
52.571,15.3
52.5738,80.5
52.5807,159.3
52.592,512.3
52.5935,267
52.5973,403
52.6058,690.4
52.6207,333.2
52.6614,163
52.6841,784.9
52.7008,73.5
52.7205,364.1
52.7254,16.9
52.7292,96.3
52.7445,164.9
52.7526,583.9
52.7578,663.5
52.7737,72.5
52.8024,107.1
52.8036,91.4
52.8093,1733.9
52.81,3913
52.811,1685.4
52.8112,2529
52.8116,1961.2
52.8117,2057.5
52.8125,2744.7
52.8134,834.6
52.8142,329
52.8148,856.4
52.8155,789.7
52.8156,805.1
52.8163,821.7
52.8171,246.4
52.8264,95
52.8418,284.6
52.8448,715.1
52.8562,91.8
52.8697,129.2
52.8843,179.3
52.889,137.6
52.899,257.3
52.9002,205.7
52.9025,305.7
52.9076,165.8
52.9281,141
52.9317,226.4
52.9335,330.4
52.9526,347.4
52.964,401.7
52.9972,273.7
53.0057,107.7
53.0146,72.6
53.0355,727.9
53.0385,183.7
53.0674,356.8
53.0978,15.3
53.1003,252.4
53.1007,73.7
53.1183,16.8
53.1296,73.5
53.1391,17.5
53.1425,191.8
53.1547,175.2
53.1568,371.2
53.166,202.4
53.1874,68.8
53.2011,171.5
53.2016,64.9
53.2024,158.2
53.2066,248.4
53.2103,330.7
53.2104,335.2
53.2193,661
53.2524,18
53.2662,144.2
53.2709,306
53.2751,457.1
53.2852,83.2
53.2905,792.8
53.312,871.4
53.3137,69.4
53.3148,76.5
53.3167,73.5
53.3341,115.9
53.3397,73.1
53.3431,205.2
53.3479,114.5
53.3632,212.5
53.3663,180.1
53.3682,264
53.3948,72.3
53.3953,111.8
53.4027,182.1
53.4036,127.8
53.4056,541.3
53.4244,248.3
53.4357,15.6
53.4518,173.7
53.4704,159.4
53.4749,271.9
53.4815,758.4
53.4957,325.8
53.4976,357.4
53.5055,254.3
53.5106,823.7
53.528,584.6
53.5379,124.7
53.5423,16.7
53.5524,195.2
53.5626,350.3
53.5664,103.9
53.5807,125.9
53.5838,155.2
53.5873,523.8
53.5877,81.2
53.5936,150.8
53.5998,317.8
53.607,212.7
53.6212,464
53.6275,83.3
53.6473,235
53.6871,510.3
53.6918,432.8
53.7268,130.7
53.7311,166.5
53.7354,391.9
53.7379,765.1
53.7468,68.2
53.7967,79.7
53.7996,573.5
53.8042,16.5
53.8137,169.2
53.8173,510.4
53.8175,302.5
53.8187,111.7
53.8273,140.1
53.8637,688.5
53.8688,140
53.8831,435.1
53.89,333.9
53.9005,732.3
53.9011,153.5
53.921,72.2
53.9358,353.2
53.9765,701.4
53.9803,16.1
54.0203,375.1
54.0232,66.7
54.0497,66.8
54.0616,85.1
54.0679,824.3
54.081,76
54.0918,16.5
54.1006,543.3
54.1092,15.2
54.1181,167.3
54.1334,115.9
54.141,141.6
54.1563,199.6
54.1688,706.3
54.172,62.9
54.1785,20.2
54.2088,17.5
54.2204,372.6
54.222,87.2
54.2238,85.5
54.2416,65.5
54.2558,17.5
54.2958,175.7
54.3062,306.8
54.3074,149.7
54.3171,160.2
54.3184,88.1
54.3345,90.1
54.3359,70.2
54.3402,106.7
54.345,193.3
54.3502,430.3
54.3555,851.7
54.3558,369.5
54.3565,69.2
54.357,118.3
54.3625,659.6
54.3642,357.3
54.3902,14.8
54.4054,853.2
54.4108,83.7
54.411,123.7
54.4112,111.2
54.4201,256.5
54.4208,786
54.4276,654.7
54.4343,358
54.4465,109.1
54.4647,259.5
54.4732,898.1
54.474,114.2
54.4798,369.8
54.5051,72.9
54.5306,311.4
54.5322,147.5
54.5352,108
54.5469,162
54.5723,165.1
54.574,116.4
54.5982,84.8
54.6099,73.6
54.6154,344
54.6244,110.1
54.6453,381.8
54.6867,238.6
54.697,65.1
54.726,473.3
54.7394,169
54.7488,15.2
54.754,340.6
54.7618,268.8
54.7824,74
54.7839,398.5
54.7958,167.3
54.7975,158.2
54.8021,691
54.8083,147.2
54.8094,465
54.8112,569.1
54.8116,106.7
54.8556,192.4
54.8711,93
54.9205,733.6
54.9286,117.8
54.9464,108.6
54.9491,379.6
54.9493,403.2
54.9535,18
54.9658,443.5
54.9674,178.4
54.9762,345.1
54.996,331
55.0328,80.7
55.0335,358.8
55.0544,281.5
55.0847,748.7
55.0989,618.1
55.0997,229.2
55.1629,808.1
55.1672,519.9
55.1737,16.8
55.1865,326.5
55.1911,80.7
55.1931,109.8
55.1939,591.3
55.2,18.7
55.2427,14.6
55.2511,143
55.2802,146.3
55.2964,169.2
55.3187,122
55.3215,132.6
55.3264,190.2
55.3339,87.1
55.3368,501.1
55.3409,180
55.346,107.7
55.3607,260.2
55.3682,185
55.3746,201.1
55.4536,361.4
55.4547,725.3
55.4603,569.7
55.4646,297
55.4883,327.1
55.4998,533.2
55.5004,584.2
55.5248,184.3
55.539,79
55.5394,378.4
55.5855,93.3
55.5981,104.2
55.6037,110.2
55.6077,168.5
55.6115,93.6
55.6196,218.9
55.6204,313.1
55.649,199.9
55.6686,438.8
55.6791,17
55.6828,172.6
55.6919,16
55.7064,18
55.725,111.2
55.7352,335.4
55.7378,537.7
55.7447,97.4
55.7484,468.6
55.749,848.6
55.7589,77
55.7707,324.8
55.7815,293.2
55.7891,482.6
55.8093,426.3
55.8157,15.7
55.8168,230.9
55.8185,174.4
55.8348,313.1
55.836,166.3
55.8366,129.8
55.8375,239
55.8543,260.8
55.8745,840
55.8783,335
55.8864,99.9
55.9119,697.7
55.915,901
55.9204,96.8
55.9327,523.4
55.954,17
55.9549,225.4
55.986,776.8
55.9964,372.4
55.9973,65.9
56.0238,298.2
56.0285,444.6
56.0466,341.5
56.0491,126.4
56.0546,104.1
56.0553,705.7
56.0729,84
56.077,123.4
56.1053,193.5
56.1119,79.2
56.1165,439.6
56.1229,173.4
56.1939,100.6
56.2031,790.4
56.207,423.6
56.2076,91.6
56.2355,338.2
56.2435,139.2
56.2522,166.8
56.2561,284.1
56.2569,98.8
56.2593,1060.2
56.2753,98.4
56.2969,134.6
56.3045,166.8
56.3105,76.1
56.3106,76
56.3419,127.7
56.3571,722.7
56.3682,15
56.3825,421.6
56.3845,16
56.3967,134.8
56.4053,102.4
56.4249,142.1
56.4281,113.8
56.429,205.7
56.43,103.8
56.4353,83.1
56.4571,97.4
56.4755,99.6
56.4861,449.7
56.4991,201.4
56.5057,88.7
56.5107,224.7
56.5159,19
56.5213,387.5
56.5222,217.9
56.5506,68.3
56.5762,164.9
56.5997,668.6
56.636,213.5
56.6891,93.7
56.7003,288.9
56.7056,139.6
56.7174,130.1
56.7215,177.5
56.7232,233
56.7274,81.5
56.7334,159.7
56.738,18.3
56.7471,77.2
56.7528,75
56.759,546.7
56.7645,100
56.765,69.6
56.7867,308.8
56.8002,955.3
56.8092,77.8
56.816,427.7
56.8194,687.8
56.8214,423.9
56.8689,206.3
56.8857,92.4
56.9134,437
56.9194,169.1
56.9378,110.7
56.9388,176.6
56.9481,83
56.9578,192.6
56.9749,189.3
56.9793,465
56.9847,391.2
56.9904,181.5
56.9955,290.5
56.9991,521.4
57.0037,168.9
57.0092,849.7
57.0431,442.1
57.0937,166.9
57.0967,694.1
57.1004,74.3
57.1042,136.1
57.1147,119.8
57.1227,235.9
57.1522,87.9
57.1546,195.9
57.1655,179.4
57.169,128.4
57.202,317.8
57.2049,15.5
57.2408,602.2
57.2477,81.7
57.2519,16.6
57.2545,657.9
57.2575,98.8
57.2788,565.7
57.2805,71.5
57.2881,446.5
57.3055,79.7
57.3133,636.4
57.3231,628.7
57.3291,99.2
57.3313,353.2
57.3688,109.1
57.373,546.5
57.3753,171.4
57.3862,153.6
57.3863,152.5
57.3878,522.4
57.3955,254.6
57.4016,268.7
57.4141,244.7
57.4181,69.7
57.4318,339
57.4398,214.6
57.5311,197.2
57.5315,187.7
57.5424,195.8
57.5755,924.3
57.58,216.9
57.5979,759.8
57.6121,253.7
57.6125,257.7
57.6347,200.3
57.6432,610.3
57.6502,639.8
57.6526,80.7
57.6537,81.1
57.656,110.3
57.6919,592.9
57.6933,572.7
57.6976,103.2
57.7221,263.3
57.7371,125.5
57.7497,220.7
57.7697,203.1
57.7765,167.7
57.833,278
57.8758,137.6
57.8847,220.7
57.889,242.4
57.8899,71.9
57.9103,415
57.9108,158.9
57.9347,78.4
57.947,374.5
57.9849,181.6
57.9999,124.5
58.0221,280.2
58.0493,287.9
58.0787,217
58.0938,89.4
58.098,115.5
58.1038,17.8
58.1148,14.9
58.125,81.2
58.1294,349.2
58.1494,256.6
58.162,128.9
58.1664,640.4
58.1891,521.8
58.2025,697.3
58.2164,72.3
58.2283,216.4
58.23,361.2
58.2384,621.1
58.2434,434.5
58.2548,209.3
58.2564,101.1
58.2738,352.5
58.2785,85.9
58.3359,173.9
58.3551,86
58.3635,427.9
58.3796,17.3
58.3815,357.2
58.4116,249.4
58.4246,15.5
58.4255,661.5
58.4522,91
58.4638,182.9
58.4791,264.4
58.4807,128.2
58.485,150.7
58.51,292.5
58.5297,107.7
58.5505,17.2
58.5618,130.6
58.5644,67.2
58.5704,17.5
58.5779,373.9
58.581,204.2
58.6174,183.9
58.6201,420.2
58.6255,256.2
58.6266,313
58.6299,379.6
58.6626,111.8
58.6754,187.8
58.6835,87.3
58.7092,459.3
58.7378,137.5
58.7404,371.9
58.7696,150.9
58.7753,181.2
58.8005,17.9
58.8248,364.2
58.827,237.4
58.8307,223.6
58.8378,758.1
58.842,17.3
58.8482,91.2
58.8544,15.5
58.8696,218.6
58.9099,168.7
58.9161,499
58.9195,316.5
58.9242,475.8
58.9291,431.5
58.9385,141.8
58.9538,140.6
58.9543,349.2
58.9644,121.2
58.965,343.3
58.9672,16.2
59.0054,88.7
59.0086,135
59.0137,77.1
59.0211,98.5
59.0416,868.7
59.0535,708.8
59.0624,129.6
59.0637,160.5
59.0657,487.9
59.0828,147.4
59.0942,684.5
59.1066,134.9
59.1173,176.1
59.1223,119.9
59.1269,17.2
59.1314,293.6
59.1318,138.5
59.1362,95.3
59.1517,418.1
59.1791,402.5
59.1816,16.5
59.186,835.1
59.1888,251.5
59.1979,116.6
59.2024,203.3
59.22,154.1
59.2215,203.9
59.2224,16.9
59.2292,95.2
59.2303,214.3
59.2313,72.5
59.255,181.8
59.2807,302.1
59.2848,17.2
59.2966,135.1
59.3032,592.6
59.3049,185.8
59.3066,382.7
59.3214,348.3
59.3291,105.6
59.3372,173.2
59.3393,16.3
59.349,75.9
59.3546,456.7
59.3597,727.1
59.3724,110.7
59.3835,72.7
59.3996,100.1
59.4174,209.9
59.4404,613.5
59.4471,372
59.4538,84.8
59.4571,377.1
59.463,160.7
59.4682,16.5
59.4696,255.2
59.4849,177
59.5083,809.1
59.5123,753.7
59.5238,179
59.5253,66.9
59.5294,750.5
59.5336,84.3
59.5393,153.3
59.6071,415.8
59.6168,162.1
59.6172,65.3
59.6188,833.2
59.6428,16.2
59.6468,16.1
59.6725,480.9
59.6729,242.9
59.6802,488.9
59.6853,641.2
59.6873,464.3
59.6913,117.7
59.7304,428.8
59.7462,16.4
59.7604,132.9
59.7671,78.4
59.7961,105.6
59.8285,314.2
59.8319,113.6
59.8326,99.1
59.8344,167.2
59.8379,766
59.8389,617.4
59.8667,71.3
59.8869,124.2
59.8895,448.1
59.8985,76.2
59.9422,496.5
59.9769,78.3
59.9857,162.3
59.9913,134.7
60.0011,134.8
60.0027,194.3
60.0315,784
60.0456,671.5
60.0474,453.2
60.0857,151.2
60.0998,18.5
60.1452,130.3
60.1482,124.6
60.1646,16.8
60.1706,175.6
60.1818,485.7
60.1917,159
60.2143,106.4
60.2613,194.7
60.2695,65.6
60.3106,114.2
60.3113,292.6
60.3149,197.9
60.3216,499.6
60.3302,746.2
60.3321,354.4
60.333,18.4
60.336,81.3
60.3432,254.9
60.3437,116.4
60.3601,115.7
60.368,343.9
60.3744,100.5
60.3817,573.2
60.4172,284.6
60.4287,723.3
60.4498,18.3
60.4547,81.5
60.4583,89.3
60.4592,272.4
60.487,429.8
60.4952,138.7
60.5061,82.5
60.5139,19.2
60.5151,170
60.5177,589.6
60.5404,119.1
60.5791,80
60.5905,301.4
60.626,271.7
60.6331,220.2
60.6528,262.1
60.6569,646.7
60.6584,16.7
60.698,515.1
60.729,397.2
60.7362,172.9
60.7371,246.5
60.7418,338.1
60.7435,688
60.7607,73
60.7615,69.9
60.7649,528.6
60.7673,256.6
60.7715,511.3
60.7833,307.4
60.8225,17.3
60.8246,224.5
60.8368,802.1
60.8397,243
60.8403,93.1
60.847,349.8
60.8475,749.8
60.8523,20.1
60.8657,170.8
60.8812,22.3
60.8892,90.1
60.8906,90.7
60.8938,315.8
60.9247,163.1
60.9447,77.4
60.9989,166.2
61.0006,641.3
61.0178,726.6
61.0201,239.9
61.0239,716.7
61.0378,144.8
61.0748,264.3
61.0754,181.1
61.0952,105.2
61.0989,766.9
61.1233,108.5
61.1425,372.7
61.1468,387.2
61.2099,73.6
61.2158,234.1
61.2207,1059.4
61.2326,104.4
61.2402,646.6
61.2422,88.2
61.2442,82
61.2678,550.7
61.2689,745.8
61.2855,86
61.2885,188
61.3034,380
61.3167,859.9
61.3347,464.6
61.3972,162.6
61.4119,357.6
61.4162,136.8
61.4315,195.3
61.4392,110.6
61.4454,20.5
61.471,87.3
61.4747,102.7
61.4806,234.5
61.482,389.7
61.5204,19.4
61.5227,341.4
61.5349,773
61.5422,16.8
61.5843,297.4
61.5848,17.8
61.6242,20.8
61.6584,93.4
61.6768,91.6
61.6852,801.5
61.6954,133.7
61.718,70.5
61.7204,654.4
61.7337,142.8
61.7534,780.3
61.7577,152.4
61.7674,159.4
61.772,79.9
61.8428,89.5
61.8471,19.7
61.8593,557.8
61.8629,312.5
61.8644,796.6
61.8719,79.6
61.883,95.3
61.9001,77.8
61.9107,208
61.9393,158.4
61.9399,730.2
61.9452,71.5
61.9464,207.2
61.9473,319.5
61.9605,778.4
61.9682,190.8
61.9702,21.4
61.9772,162.9
62.0009,889.8
62.0062,207.6
62.0419,18.5
62.049,85.5
62.0864,335.1
62.1154,345.9
62.1311,69.4
62.1436,845.8
62.1536,138.5
62.1763,535
62.1801,181.9
62.194,260
62.206,17.9
62.2102,16.7
62.2409,265.4
62.25,683.1
62.2703,759.8
62.2934,322.6
62.3066,179.1
62.3225,126
62.3346,81.1
62.3353,308.2
62.3394,448.5
62.345,69
62.3737,87.4
62.3743,288.4
62.3998,562.4
62.4057,20.3
62.4102,82.6
62.4258,92.3
62.4531,122.1
62.4635,107.1
62.4728,82.3
62.4741,94
62.4881,83.6
62.5019,149.6
62.5025,134.2
62.5112,615.4
62.5161,81
62.5223,185
62.5358,401.7
62.5369,614.9
62.5429,416.9
62.5467,177.2
62.5498,116
62.5513,122.5
62.5521,597.5
62.5896,17.4
62.5945,263.5
62.6003,163.5
62.6084,601
62.6123,355.9
62.6329,728.5
62.635,100.9
62.6806,350.5
62.6968,172.1
62.7082,96.6
62.7195,119.5
62.7333,169.6
62.7371,862.4
62.7441,245
62.7545,107.5
62.7611,116.4
62.7764,77.4
62.7816,125.4
62.7872,85.9
62.7901,351.4
62.791,193.6
62.7933,19.9
62.8384,200
62.8438,463.5
62.8527,135.6
62.9397,228.3
62.9638,117.8
62.9688,15.9
62.9709,141.8
62.9729,732.7
63.0304,223.9
63.0412,175.4
63.0517,16.9
63.0716,17.5
63.0768,239.2
63.1154,14.5
63.1156,14.8
63.1263,104.7
63.1345,149.4
63.1558,84.4
63.175,148
63.1795,19.1
63.1814,851.3
63.1862,94.2
63.1983,17
63.2196,110.1
63.243,83.4
63.2582,671.7
63.2836,317.2
63.2925,348.7
63.2982,102.4
63.3046,146.6
63.3058,216.4
63.3104,417.6
63.3169,191
63.3185,344.7
63.3206,83.1
63.3324,356.2
63.3404,76.6
63.3643,237.2
63.3833,83.7
63.3848,18.6
63.3861,446
63.3891,197.4
63.4016,542.5
63.409,317.8
63.4103,87.1
63.4189,66.8
63.4533,96.6
63.4655,184.7
63.5025,136.4
63.5279,302.7
63.5564,115.2
63.5628,19.7
63.5708,312.1
63.575,304.6
63.5839,142.8
63.5894,123.4
63.607,87.8
63.6228,416.8
63.6335,136.7
63.6541,75.6
63.6879,188.5
63.697,391.4
63.7109,18.3
63.7191,114.7
63.7203,172.6
63.7295,75.4
63.7428,284.5
63.7496,348.2
63.7687,705.8
63.7879,550.8
63.8055,195.4
63.8301,198.8
63.8359,117.4
63.8372,821.8
63.8446,352.5
63.8495,418.7
63.8673,718.8
63.8697,490.2
63.8796,75.7
63.8926,144.7
63.8956,436
63.9107,123.9
63.9233,128
63.9257,16.6
63.93,128.7
63.9347,20.1
63.9438,171.3
63.9619,847
63.9836,82.7
64.0021,386.2
64.0088,77.1
64.011,19.2
64.033,309
64.0351,768.5
64.042,919.8
64.0585,81.5
64.0624,207.4
64.0759,427.4
64.1009,80.4
64.1139,726.8
64.1167,837.5
64.1184,352.3
64.1571,128.9
64.1647,207.7
64.1873,194.5
64.2208,449.1
64.2617,162
64.2624,76.7
64.2705,392.9
64.2765,824.7
64.2803,21.1
64.2816,17.6
64.3002,158.5
64.3024,751.3
64.3295,265.7
64.3313,85.6
64.3323,122.7
64.362,160.4
64.3662,212.3
64.3764,81.3
64.3767,86.3
64.3769,83.3
64.4006,171.2
64.4011,19.2
64.4233,102.5
64.4263,119.6
64.4328,731.5
64.4398,195.4
64.4667,161.5
64.4903,108.5
64.5092,102.2
64.5117,246.6
64.5299,167.5
64.5357,76.5
64.5405,128.1
64.5452,174.5
64.5903,75.1
64.6019,162.5
64.6023,292.3
64.6082,17.7
64.6096,124
64.6379,491.8
64.6688,200.4
64.6697,91.2
64.6744,309.2
64.6769,401.1
64.7045,169
64.7182,161
64.7201,281.5
64.7287,179.5
64.7338,23.2
64.7381,422.8
64.7455,310.8
64.7486,248.3
64.7646,715
64.7722,548.3
64.7885,604.7
64.8027,413.5
64.8083,512.9
64.8162,200.6
64.8229,339.8
64.8369,177
64.874,287.6
64.8863,86.6
64.9056,84.8
64.9186,475.7
64.9211,429.6
64.9238,534
64.9318,801.6
64.9801,17.1
64.9824,66.1
64.9962,263.5
64.997,166.4
65.0003,64.6
65.0203,374.5
65.037,294.7
65.0439,752.5
65.0763,227.5
65.0777,132.8
65.0789,181
65.0831,283.3
65.0851,171.8
65.0968,73.7
65.1265,223.2
65.1297,115.5
65.1689,82.8
65.1955,610.3
65.2149,124.4
65.2204,164.7
65.2605,395.9
65.2659,17.1
65.267,171.6
65.2727,196.8
65.2832,860.8
65.2896,92.4
65.2929,241.1
65.3186,17.7
65.3241,16
65.3251,97.6
65.3263,77.1
65.3451,808.5
65.3591,454.7
65.376,82.6
65.3803,199.6
65.4075,114.4
65.4088,462
65.4381,829.1
65.4441,94
65.4481,602.8
65.4617,15.2
65.4649,73.5
65.4657,131.3
65.473,15.3
65.4732,15.2
65.4905,85.9
65.497,295.8
65.5024,18.4
65.5056,73.5
65.5264,20.2
65.541,109
65.5437,626
65.5469,75.8
65.5575,134
65.568,435.8
65.5781,163.2
65.5791,337.6
65.5873,933.2
65.5957,621.1
65.6114,166.7
65.6209,524.3
65.6308,743.8
65.6367,85.1
65.6574,135.6
65.6582,154.4
65.6752,105.6
65.6799,111.5
65.7083,561.2
65.7244,156.5
65.7293,401.3
65.744,303.7
65.7446,103
65.7543,348.4
65.7683,67.3
65.7748,395.4
65.7804,113.4
65.7843,82.9
65.7913,170.8
65.8071,130.5
65.8115,402.4
65.8301,635.9
65.8379,173.6
65.8559,335.3
65.9156,244
65.9225,185.9
65.9276,88.2
65.949,167.1
65.9574,110.5
65.9628,168.1
65.9654,93.6
65.9704,221.9
65.9815,17.1
65.9848,127.8
66.0134,464.6
66.0226,91.9
66.0456,673.4
66.0804,87.4
66.0935,517.8
66.0979,103.4
66.1153,117.4
66.1379,292
66.1528,316
66.1627,87.1
66.1813,187.1
66.2246,340.8
66.2313,394.8
66.2388,190.1
66.2395,74.9
66.2792,717.2
66.2902,266.2
66.3373,113.5
66.3436,86.7
66.3493,564.5
66.3498,632
66.3518,160.7
66.3536,428.7
66.3753,297.8
66.3824,15.2
66.3843,449.5
66.4197,627.5
66.4229,17.4
66.4419,434.4
66.4429,440.1
66.4623,18.1
66.4687,156.2
66.4713,865.6
66.4803,495.1
66.4927,900.9
66.4935,708.2
66.5028,79.7
66.5209,89.1
66.5245,228.1
66.5321,111.2
66.5335,128.5
66.5474,381.7
66.5814,854.1
66.6,80.3
66.6297,446.4
66.6401,91.2
66.6575,404.4
66.6661,76.9
66.6941,383
66.7143,150.5
66.7226,193.7
66.7351,258
66.7411,115.2
66.7461,541.4
66.7732,96.1
66.7749,100.3
66.7828,406.6
66.8227,17.6
66.8317,682.6
66.8446,285.6
66.8515,371.6
66.8659,679.6
66.8808,17.4
66.8888,406.6
66.8927,880.9
66.8942,175.3
66.8959,66
66.918,456.9
66.9521,442.8
66.9551,560.8
66.9643,67.4
66.9852,628.3
66.9996,349.3
67.0137,285.6
67.031,190.5
67.045,15.9
67.0479,501.6
67.049,85.3
67.0523,118.9
67.0538,30.6
67.055,110.6
67.0751,92.3
67.0788,91.2
67.0823,159.4
67.096,19
67.125,292.4
67.1386,83.2
67.1409,151.1
67.1415,18.4
67.1452,177.3
67.1582,200.4
67.1644,172.4
67.1871,122.8
67.192,19.3
67.1925,191.8
67.1968,366.8
67.2063,306.9
67.2201,357.8
67.2241,16.9
67.2408,66.1
67.2411,65.4
67.242,620.6
67.264,470.6
67.2734,94.1
67.2918,350.4
67.3149,106.5
67.3269,328
67.3468,20.2
67.3523,175.2
67.3602,990.1
67.3669,77.7
67.3725,90.4
67.3732,657.3
67.3918,281.5
67.3928,122.8
67.42,72.8
67.4256,184.9
67.4265,77.9
67.4426,625.4
67.4497,550.6
67.4827,177.6
67.4853,397.4
67.4876,412.6
67.4921,164.3
67.5186,375.7
67.5196,422.8
67.5272,84.7
67.5442,386.8
67.546,701.7
67.5562,528.3
67.5954,355.1
67.599,191.4
67.6127,150.9
67.6305,360.8
67.6369,151.3
67.6424,1071.9
67.6698,73.3
67.6874,232.9
67.6889,657.7
67.6973,401.9
67.7122,194.6
67.7156,475.1
67.737,192.8
67.7405,117.5
67.7772,363.3
67.8235,198.3
67.8407,606.1
67.8454,126
67.8641,824.2
67.8723,186.7
67.8824,563
67.8891,775.5
67.908,77.9
67.9155,169.5
67.9304,172.4
67.9323,827.3
67.9364,583.1
67.9373,80
67.941,825
67.9461,89.8
67.9749,79.9
67.9786,217.7
67.997,428
68.0079,815.3
68.0085,217.4
68.0133,205.7
68.0176,250.1
68.0465,82.6
68.0475,86.5
68.0556,20.2
68.0965,196.6
68.1168,751.3
68.1509,131.1
68.1647,16.1
68.1717,69.7
68.1744,983.3
68.1766,106.8
68.2073,76.1
68.2134,224.4
68.2443,296.6
68.2533,69.4
68.2582,966.9
68.2697,110.6
68.2779,354.9
68.2928,294.2
68.2935,323.4
68.3081,441.1
68.3104,105.9
68.3127,157.2
68.3142,228.3
68.3355,876
68.3464,93.7
68.3971,206.7
68.4089,82.1
68.4179,19.6
68.4214,78
68.4231,192.7
68.4344,108.8
68.4487,146.3
68.4513,684.4
68.4588,216.4
68.4599,194.9
68.4656,75
68.4714,88.5
68.4746,388.8
68.4866,178.2
68.4999,471.2
68.5228,686.5
68.5306,318.7
68.536,97.1
68.5368,15.4
68.5547,200.6
68.5554,16.7
68.5588,95.3
68.5604,804.7
68.5674,69.5
68.5783,18.2
68.5999,412.2
68.6028,97
68.6176,92
68.6301,104.4
68.6357,175.6
68.6512,279.4
68.6519,18
68.6646,309.1
68.6729,770.1
68.6774,1064.7
68.6844,131
68.6987,70.1
68.7212,651.5
68.7237,707.1
68.7409,161.4
68.7657,710.7
68.7674,117.5
68.7693,101.3
68.774,373.4
68.7926,186.8
68.829,187.8
68.837,166
68.8892,187.1
68.9,17.3
68.906,72
68.9237,78.7
68.934,129.1
68.9354,793
68.9471,290.9
68.957,168.3
68.9872,641.2
68.9992,159
69.0131,89.1
69.0183,138.2
69.0192,731.3
69.0499,134.1
69.0865,657.3
69.1022,93.4
69.1451,271.8
69.1535,323.6
69.1537,334.4
69.1571,334
69.166,821.3
69.174,162.8
69.177,649.5
69.2042,270
69.2252,91.3
69.2274,104.5
69.2434,18.5
69.2517,653.9
69.256,566.5
69.2744,85.4
69.2806,71.2
69.2957,188.5
69.2986,893.7
69.3046,68.7
69.3141,237.3
69.3653,548.4
69.3995,217.2
69.4002,353.5
69.4058,79
69.4361,177.5
69.4823,72.3
69.5019,86.9
69.5128,201.8
69.5178,917.9
69.5336,207.8
69.5757,78.7
69.624,92.8
69.6261,136.3
69.6327,140.2
69.6634,79.3
69.6797,250.4
69.6991,210.1
69.7152,133.9
69.7277,706.6
69.7282,315
69.7475,571.9
69.7483,72.1
69.755,99.1
69.7566,262.6
69.77,271.8
69.7837,94.1
69.8071,500.2
69.829,341.6
69.8305,747.1
69.8336,369
69.8678,78.9
69.9088,109
69.9116,169.3
69.9183,92.8
69.9339,413.6
69.9434,202.7
69.9551,94.9
69.9644,193.4
69.9858,502.7
69.9912,155.4
69.9958,18.9
70.0032,69.9
70.0104,233.6
70.0166,457.4
70.0181,522.8
70.0216,17.9
70.022,71.7
70.0296,326.7
70.0321,175.2
70.0547,20
70.0586,140.5
70.0648,256
70.0673,20
70.0731,108.8
70.0753,822.8
70.0813,90.1
70.0982,86.9
70.099,176.7
70.1003,266.4
70.1162,72
70.1187,171
70.1234,98.7
70.1638,17.2
70.1661,566.9
70.1992,313.6
70.2006,85.8
70.2179,87.3
70.2539,86.4
70.2864,317.9
70.2914,160.6
70.3302,152.7
70.3658,364
70.375,354
70.3769,272.3
70.3879,105
70.393,415.8
70.4345,450.8
70.4812,689.8
70.4956,527.8
70.5091,81.5
70.5099,121.5
70.5158,579.5
70.589,556.5
70.6124,311.1
70.6586,86.1
70.6659,205.3
70.6685,169
70.694,99
70.7087,800.6
70.7113,331.5
70.7372,457
70.7418,15.9
70.7452,486.4
70.7689,167.1
70.7721,762.1
70.793,70
70.8055,382.1
70.8083,79.1
70.8093,212.6
70.8219,133.6
70.8286,376.4
70.8376,237.4
70.9009,18.3
70.9156,910
70.9258,77.4
70.9506,165.7
70.9837,186.7
70.9902,83
70.9951,137.3
71,598.3
71.034,338
71.0403,688.1
71.0475,263.1
71.0705,140.6
71.0721,432.1
71.0752,793.2
71.0888,123.6
71.1155,394.6
71.1214,167.9
71.1715,76.9
71.1728,143.2
71.1762,103.2
71.1894,180.1
71.203,278.5
71.2099,100.4
71.2112,116.6
71.2207,356.3
71.2352,610.1
71.238,782.6
71.2702,488.7
71.2808,272.4
71.284,175.5
71.2871,748.1
71.2995,17.3
71.3219,117.1
71.3247,213.9
71.3313,260.8
71.3394,643.8
71.3435,746.6
71.3692,350.5
71.3839,87.6
71.3894,598.3
71.3903,18.3
71.4034,286.2
71.4384,138
71.4478,82.4
71.4656,297.8
71.4739,155.1
71.4771,97.1
71.4922,565.1
71.503,137.4
71.5036,80.5
71.5038,73.5
71.5294,487.4
71.5322,90
71.5547,102.6
71.5603,165.1
71.5847,160.9
71.6124,107.3
71.6271,143.3
71.6397,304.5
71.6421,260
71.6439,152
71.6509,412.8
71.6646,92.9
71.6656,18.5
71.7063,75.3
71.7448,19.8
71.7771,324.7
71.8039,193.3
71.8079,201.6
71.8349,17.4
71.8393,789.8
71.8454,78.3
71.8488,115.5
71.8594,67.2
71.8627,448.2
71.9192,130.5
71.9245,88.4
71.9454,159.8
71.9467,16.9
71.9552,455.8
71.9694,77.7
71.9711,172.2
71.9851,144.3
72.0161,112.4
72.0186,252.9
72.0322,242.1
72.0509,272.6
72.0644,340.9
72.0731,859.7
72.0805,1358.5
72.0899,490.5
72.098,209.4
72.1386,708.4
72.1454,119.3
72.1718,169.3
72.2015,75.1
72.2048,16.3
72.2214,156.2
72.2274,149.5
72.2281,635.7
72.2315,185.8
72.2322,306.3
72.2333,401.2
72.2355,1012.9
72.237,783.9
72.238,554.7
72.2388,372.4
72.2396,731.5
72.2399,665.3
72.2404,1091.5
72.2414,1331.4
72.243,1914
72.2433,1961.1
72.2443,2740.6
72.2453,3115.8
72.2465,2775.1
72.2471,2864.5
72.2482,4604.2
72.2494,3421.9
72.2501,1699.7
72.2511,3409.1
72.2514,3687.2
72.2527,2709
72.2532,3898.1
72.2543,2825.8
72.2557,1363.1
72.257,1630
72.2581,1799.6
72.2589,2205.9
72.2607,678.5
72.2614,23.8
72.2622,108.8
72.2641,164.2
72.2656,751.5
72.2912,63.9
72.3179,127
72.3395,104.3
72.3494,749
72.3619,237.8
72.3702,71.6
72.3756,265.8
72.3837,79.1
72.4055,527.2
72.4113,481.5
72.4493,261.8
72.4645,17.6
72.4661,93.5
72.4738,308.9
72.501,239
72.5252,976.8
72.5386,327.2
72.5412,288
72.5517,152.2
72.5526,71.2
72.5697,126.4
72.593,112.8
72.5966,81.9
72.6042,95.8
72.64,409.2
72.6808,91.9
72.6906,17.2
72.7261,510.4
72.7302,175.7
72.7371,187.1
72.7406,215.3
72.7975,77.6
72.8206,93
72.8219,86.2
72.8245,78.3
72.8349,895
72.8393,500.9
72.8541,677.5
72.8614,19.4
72.8806,202.1
72.8817,391.2
72.9001,140.3
72.9199,108
72.9368,572.6
72.9459,85.3
72.9524,138.2
72.977,16
72.9857,90
72.9864,182.6
73.0016,183.5
73.0191,112
73.0238,394.3
73.0395,17.6
73.0433,785.6
73.0553,70.9
73.0577,115.5
73.0656,454.7
73.0666,661.5
73.0699,92.9
73.0782,79.2
73.0847,349
73.0891,184.4
73.0962,347.4
73.1064,250.6
73.1221,68.6
73.1317,15.5
73.1604,383.3
73.1641,75.5
73.1747,90.1
73.1848,91.4
73.192,183
73.2152,99.9
73.2729,89.7
73.278,253.8
73.2953,95.2
73.3038,636.6
73.3164,17.3
73.3166,16.7
73.3274,148.1
73.3422,137.2
73.3506,81.6
73.3517,120.8
73.3645,97.6
73.3894,170
73.393,107.5
73.4079,80.6
73.4225,120.3
73.4247,209.4
73.436,162.3
73.4441,642.3
73.4606,764.2
73.4786,71.5
73.4791,173.9
73.4826,467
73.4871,105.7
73.4894,334.6
73.5594,184.9
73.56,136.7
73.5633,237.8
73.5863,19.1
73.5985,88.1
73.6021,84.2
73.6154,109.2
73.6299,80.6
73.6746,138.1
73.6807,742.9
73.6884,1099.5
73.7075,71.4
73.7081,243.2
73.7673,157
73.769,138.9
73.7849,688.7
73.7916,171.5
73.8199,282.6
73.8581,163.3
73.8626,516.4
73.8813,168.2
73.896,16.6
73.9379,746.1
73.9393,171.2
73.9396,208.1
73.9398,202
73.9477,776.7
73.9595,184.2
73.9613,243.6
73.9635,266.6
73.9692,410.1
73.9712,17.4
73.9829,88.6
73.9894,80.9
74.0597,2088.6
74.0739,531.1
74.0801,845.6
74.0874,353
74.0885,17.4
74.0934,435.9
74.1399,633.4
74.1414,157.8
74.146,477.1
74.157,452.7
74.1591,316.9
74.1612,16.8
74.2103,268.6
74.2129,130.9
74.2383,73.4
74.2461,751.7
74.2474,18.6
74.257,127.3
74.261,171.1
74.264,86.3
74.2663,200.9
74.2727,88.1
74.3017,174.2
74.3223,125.8
74.3283,114.1
74.3754,179.5
74.3767,113.3
74.3786,72.6
74.4078,83.8
74.4096,115.3
74.4388,650.9
74.455,500.4
74.4625,359.5
74.4819,336.9
74.4879,149.4
74.5107,334.8
74.5341,865.7
74.5342,872.5
74.5346,650
74.5525,358.8
74.56,147.8
74.5679,18.8
74.5977,17.2
74.6208,584.8
74.6277,20.3
74.6484,959.2
74.6592,155.8
74.6851,148.9
74.7075,562.3
74.7153,338.1
74.7225,99.5
74.7375,699.7
74.7385,18.1
74.76,164.9
74.7759,695
74.7793,379
74.7877,205.4
74.8108,174.2
74.824,622
74.8306,660.1
74.8318,629.3
74.837,107.8
74.8414,672.5
74.8473,605.5
74.8531,98
74.8855,574
74.8882,1016.1
74.9038,98.5
74.909,294
74.9172,82.6
74.9208,86.6
74.927,101.2
74.9659,356.7
74.9795,72.9
75.0188,74.4
75.0313,337.7
75.0324,207.5
75.0347,17.2
75.0526,286.5
75.0749,17.7
75.1051,75.8
75.1199,189
75.1294,106.4
75.1338,107.3
75.1443,133.8
75.1832,428.5
75.184,182.7
75.2075,185.8
75.2148,80.7
75.2245,79.7
75.2344,516.8
75.2424,79.3
75.2475,20.3
75.2525,773.1
75.2567,130.7
75.259,307.3
75.2753,145.3
75.287,789
75.3143,318
75.3223,18.1
75.3364,81.6
75.3639,750.9
75.3737,587.8
75.3841,439.4
75.3856,101.1
75.4156,160.1
75.429,17.5
75.4373,242.2
75.4467,475.7
75.4593,315.5
75.4603,267.5
75.4625,331.8
75.4812,68.5
75.5165,750.9
75.5315,92.4
75.5816,189.2
75.5921,343.2
75.6389,105.5
75.6456,485.4
75.6534,207.5
75.6613,405.5
75.678,176.1
75.6806,18.8
75.6838,213.1
75.6864,83.1
75.7177,231
75.7239,83
75.7434,253.9
75.7615,18.2
75.7656,332.7
75.7836,182.9
75.7931,154.3
75.844,605.2
75.8558,216.8
75.8677,517.7
75.8699,219.8
75.8818,155.2
75.8953,263.7
75.8968,206.4
75.9314,100.1
75.9801,263
75.9988,95.7
76.0282,163.9
76.0309,576.5
76.0371,18.7
76.0944,86.6
76.1055,154.6
76.1173,308.3
76.1473,147.5
76.1525,199.2
76.1896,104.2
76.2177,177.4
76.2442,715.7
76.245,74.7
76.2493,677.7
76.2526,105.9
76.2686,80.4
76.2811,16.4
76.2824,194
76.2873,198.8
76.3028,16
76.3108,89.8
76.3123,743.3
76.316,788.2
76.3297,462.1
76.3352,283.9
76.3416,20.3
76.3675,77.8
76.3705,125.2
76.3931,17.5
76.4484,730.9
76.4567,847.1
76.4728,171.1
76.4928,406.2
76.4939,422.3
76.4994,79.1
76.5324,121.3
76.5483,318.9
76.5618,227.3
76.5675,198.4
76.6082,18.7
76.6092,400.2
76.6179,17.2
76.6191,384.9
76.6316,217.3
76.6956,619.1
76.7065,149.6
76.7096,933.9
76.7133,18.5
76.714,85.6
76.7265,230.3
76.7455,636.6
76.7525,411
76.7603,16.2
76.7643,133.1
76.7819,269.5
76.7874,797.7
76.8057,106.7
76.8108,630.5
76.8241,604.8
76.8429,73.9
76.8505,17.2
76.8568,214.1
76.8804,191.5
76.902,165.4
76.9169,183
76.9195,89.7
76.9675,130
76.986,336.7
77.009,17.4
77.0138,430.5
77.0196,104.4
77.0333,636.9
77.0341,17.1
77.0345,16.4
77.0351,158.8
77.0356,28.3
77.0369,263.6
77.0383,105914.9
77.0476,96.6
77.0713,805.9
77.0931,176.3
77.0981,114.4
77.1214,17.8
77.1335,112.5
77.1439,207
77.1653,16.2
77.1712,230.3
77.1753,17.6
77.1766,174
77.181,249.7
77.1871,100.6
77.2004,19.4
77.2213,110.1
77.2219,190.9
77.2303,76.4
77.2385,484.6
77.2436,193.3
77.2686,367.4
77.2712,817.5
77.2785,214.2
77.288,379.5
77.2918,236.6
77.3032,481.6
77.3051,500.7
77.3089,340.4
77.3154,116.7
77.3185,187.9
77.32,84.6
77.3287,192.2
77.373,362.6
77.3737,499.6
77.3868,102.8
77.4015,236.1
77.4051,328.9
77.4074,248.8
77.4137,16.9
77.4196,95.5
77.4265,150.6
77.4525,141.9
77.4679,99.4
77.4912,18.2
77.4934,126.8
77.5004,178
77.5028,314.1
77.5179,101.6
77.5381,81.2
77.5559,154.4
77.5692,173.7
77.5699,539.4
77.5885,287.2
77.5896,152.3
77.6202,230.6
77.6362,99.4
77.6538,76.1
77.6799,17.8
77.6838,529.2
77.7166,91.7
77.74,84.5
77.7618,114.4
77.7844,263.5
77.8169,19.3
77.8256,88.4
77.8393,152.7
77.8515,17
77.8598,463.2
77.8651,138.8
77.8812,170.4
77.9667,87.7
77.976,15.7
77.9912,88.2
78.0253,435.2
78.0354,121.6
78.0416,3608.5
78.046,97.8
78.0532,77.6
78.0944,302
78.0963,442.7
78.1277,100.9
78.1384,175
78.1439,87.5
78.1845,91
78.1907,806.4
78.1997,360.6
78.2555,74
78.2764,66.3
78.2793,128
78.2811,182.6
78.2961,156.3
78.3005,713.5
78.3144,167.1
78.3158,90.2
78.3376,186.9
78.3407,113.1
78.362,390.8
78.369,481.6
78.3836,390
78.3899,131.9
78.395,119.9
78.4111,979.3
78.4185,22.2
78.4225,514
78.4248,111.3
78.4338,845.2
78.4492,142
78.4565,172
78.4642,90.7
78.4738,105.7
78.4987,182.8
78.5038,556.4
78.516,640.9
78.5185,162.3
78.5283,96
78.5732,257.2
78.617,162.9
78.6334,671.8
78.6343,198.8
78.6824,536.9
78.6988,104.4
78.7025,318.1
78.7153,871.8
78.721,183
78.7302,511.9
78.7454,321.8
78.7853,118.9
78.8054,383.4
78.8115,152.3
78.8298,152.8
78.8887,17.5
78.8903,584.6
78.9004,184.6
78.9174,333.1
78.9336,347.3
78.9445,620.9
78.9482,19.5
78.9546,110.1
78.9559,95.3
78.9594,383.5
78.9723,18.1
78.9892,459.5
78.9968,110.7
79.0083,84.3
79.0142,95.3
79.0165,18.4
79.0334,95.3
79.054,2394.5
79.0865,202.5
79.1015,234
79.1087,24.4
79.1179,488.7
79.1439,126.3
79.1632,246.5
79.2418,146.9
79.2478,103.1
79.2489,188.9
79.2539,699.7
79.2564,511.1
79.2678,84.6
79.2904,773.4
79.2966,17.2
79.3067,294.7
79.3269,554.3
79.3536,241
79.3997,400.8
79.4197,634.2
79.4626,144.3
79.4727,18.9
79.4806,19.4
79.4833,670.8
79.4843,132
79.4855,169.1
79.5009,77.3
79.5102,118.2
79.5127,89.8
79.5143,568.2
79.5363,182.8
79.5443,80.7
79.5532,217.6
79.5649,318.4
79.5836,811.2
79.5853,135.1
79.5891,460.3
79.5965,70.5
79.6028,79.9
79.6087,296
79.6259,68.9
79.6296,249.9
79.6364,89.9
79.6467,128.2
79.6825,112
79.7108,836.7
79.7422,128.5
79.7438,241.7
79.746,205
79.7591,138
79.7794,83.2
79.7991,636.5
79.8045,272.2
79.8214,122.5
79.8289,146.7
79.8515,564.1
79.8628,80.4
79.866,620.2
79.876,18.4
79.8872,346.8
79.8909,755
79.8924,107.9
79.901,167.2
79.9088,18.4
79.9228,440.7
79.9258,232.8
79.9298,118.5
79.9307,72.6
79.9327,17.1
79.9426,731.8
79.9492,266.7
79.9698,104.9
79.9723,150.1
79.9798,314.3
79.9812,246.2
79.9901,228.6
80.0073,210.3
80.0271,444.9
80.0424,18.3
80.051,86.6
80.0572,18.4
80.0598,121.9
80.0622,598.6
80.0689,300.4
80.0717,169.6
80.0795,87.7
80.0993,206.8
80.1212,97
80.1363,432.2
80.1437,234.8
80.1602,546.1
80.1793,110
80.1835,156.5
80.1857,87.4
80.2182,197.8
80.2275,550.6
80.2286,176.9
80.2369,835
80.2462,703.8
80.2625,733
80.2627,625.3
80.291,276.5
80.3454,261.2
80.3471,177.4
80.3632,184.1
80.364,169.2
80.3739,17.1
80.3954,84.2
80.4374,747.9
80.4619,146.8
80.4716,561.4
80.4742,199.3
80.4885,630.9
80.5212,250
80.53,70.7
80.5337,450.6
80.5348,392.4
80.5399,604.9
80.544,506.8
80.5449,665.7
80.5466,515.1
80.5513,17.2
80.5755,132.1
80.5936,95.9
80.5951,153.1
80.6073,89.5
80.6137,138.3
80.6448,85
80.647,366.4
80.7046,336.2
80.7063,82.3
80.7181,17.4
80.7393,330.7
80.7452,132.4
80.7818,160.9
80.8022,17.3
80.8128,206.8
80.835,722.9
80.8442,72.2
80.8615,428.5
80.8663,72.9
80.8706,70.6
80.8727,343.9
80.8875,334
80.9211,97.8
80.9298,537
80.9476,28904.9
80.9624,92.5
80.9678,81.1
80.9939,17.4
80.996,159.2
80.9966,354.2
81.0059,105.6
81.0248,259.9
81.0696,2021.7
81.072,86
81.1116,161.3
81.1167,447.5
81.1532,381.2
81.157,410.8
81.1596,392.6
81.161,647.7
81.1619,1076.5
81.1631,163.4
81.1645,129.5
81.1698,98.6
81.2008,72.4
81.2043,355.5
81.2089,588.8
81.2129,201.7
81.2556,238.5
81.262,401.5
81.2704,226.3
81.2781,439.1
81.2807,490.1
81.2879,76.1
81.2969,321.5
81.3211,553.6
81.3301,15.8
81.3397,248.6
81.3503,273.2
81.3571,168.3
81.3617,278
81.3654,16.7
81.4119,75.1
81.4272,116.9
81.4687,625.6
81.4813,266
81.4822,19.2
81.491,285.2
81.5038,266.7
81.5152,161.9
81.5484,390.8
81.5606,193.7
81.5691,17.1
81.5721,171.9
81.5778,120.1
81.5827,168.4
81.5848,114.2
81.5908,73
81.5927,17.8
81.6235,522.8
81.6497,226.2
81.6627,78.4
81.6792,97.6
81.6821,95.5
81.7062,401.9
81.7129,497.5
81.7211,144.8
81.7345,139.4
81.7364,877
81.744,109.9
81.7734,464.1
81.8059,710.8
81.8125,373.9
81.822,359.5
81.8244,104.9
81.8291,19.3
81.8359,590.2
81.8414,190.5
81.882,171.7
81.8845,602.3
81.8972,284
81.9133,128.6
81.9224,390.6
81.9309,89.2
81.9678,122.4
81.9722,330.1
81.9795,179.5
81.983,74.4
81.9977,77.5
82.023,85.2
82.0319,312.6
82.034,423.2
82.0442,79.9
82.0474,463.9
82.0557,108.7
82.0666,109.6
82.0764,119.7
82.0853,445.3
82.1229,87.1
82.1302,820.5
82.1817,831.4
82.1849,160.8
82.2033,587.6
82.2159,133.6
82.225,217.6
82.2279,221.5
82.2322,485.6
82.2539,292.4
82.2553,301.3
82.2643,165.2
82.268,193.1
82.3083,108.2
82.3141,82.2
82.3149,430.8
82.3159,187
82.3212,935.5
82.3223,144.4
82.3429,313.6
82.3569,84.7
82.3899,486.5
82.4028,438.7
82.4192,374.2
82.4495,242.2
82.4758,143.4
82.488,225.7
82.5218,407.2
82.5258,140.7
82.5376,79.4
82.5799,678
82.5976,771.6
82.6013,321.5
82.6094,201.8
82.6194,20.3
82.6214,469.8
82.6344,110.8
82.6457,746.6
82.6468,416.5
82.665,255.9
82.6782,549.1
82.687,162.2
82.6921,461.5
82.7178,706.1
82.7193,130.5
82.7334,574.2
82.7461,484.4
82.7532,624.4
82.7676,394.1
82.7804,134.1
82.8329,131.4
82.8333,121.2
82.8809,129.3
82.8912,174
82.9259,339.4
82.9296,382.1
82.9373,610.6
82.9446,3903.3
82.9615,120
82.9796,81.8
83.018,176.8
83.0213,126.5
83.0338,166.7
83.0666,78.8
83.0834,115.7
83.0886,182.9
83.1169,160.9
83.1308,495.8
83.1312,431.7
83.1315,250.9
83.1408,170.2
83.1771,84.6
83.207,73.5
83.2331,73.9
83.2501,94.8
83.2691,139.1
83.2751,139
83.2912,205.5
83.2998,130.5
83.3044,173.5
83.3266,105.9
83.3334,291.5
83.3485,77.8
83.3492,157
83.3628,123.7
83.4249,244.7
83.4763,17.5
83.4817,575.6
83.4935,15.6
83.4958,863.8
83.5065,115.5
83.5189,447.3
83.5278,83.8
83.5364,17.9
83.5477,77.2
83.5838,380.5
83.5954,142.6
83.5967,117.8
83.5972,104.3
83.6244,144.7
83.6755,392.3
83.677,17.8
83.6848,369.6
83.7236,220.4
83.7292,594.1
83.7448,521.4
83.7647,156.1
83.7703,76.2
83.7725,72.9
83.7769,471.1
83.7834,178.6
83.8136,202.2
83.8363,548.4
83.8393,177.6
83.869,80.4
83.8763,209
83.8806,559
83.8889,405.9
83.8961,16.4
83.9682,600.8
84.0442,902.5
84.051,124.4
84.0786,447
84.0842,170.1
84.1051,223.7
84.1271,75.2
84.1431,498.5
84.1893,207.8
84.204,171.4
84.2182,117
84.2234,240
84.2376,336.1
84.2586,585.8
84.2743,19.8
84.2791,213.7
84.308,17.5
84.3147,191.1
84.3167,19.2
84.3213,729.6
84.3251,82
84.3282,80
84.3359,22.3
84.3485,18
84.3674,128.8
84.406,69.2
84.4075,92.2
84.4167,386.2
84.4378,17.5
84.5366,141.4
84.5682,731.7
84.5792,16.2
84.5799,78.8
84.6274,624
84.6392,407.7
84.6483,21.5
84.7051,389.4
84.7102,587.2
84.7254,174.8
84.7384,162
84.7856,553.3
84.8004,133.7
84.8053,146.8
84.8377,17.8
84.8565,203.8
84.8763,220.3
84.889,365.5
84.8953,71.6
84.898,18.5
84.9019,207.2
84.9037,109.9
84.9424,284.9
84.9521,163.8
84.9595,15362.4
84.9725,76.3
84.9955,78.8
85.0281,6998
85.0307,570.9
85.0481,92.1
85.0532,172.7
85.0799,186.2
85.083,274.6
85.0848,148.5
85.1086,82
85.1113,20.1
85.1127,582.8
85.1205,175
85.1281,190.5
85.1502,174.5
85.1981,115.1
85.2415,77.8
85.2576,89.8
85.2965,867.3
85.302,204.7
85.3174,106.1
85.3226,607.2
85.3409,709.9
85.3446,438.1
85.3459,20.4
85.4099,87.1
85.4196,98.6
85.4261,118.4
85.451,165.3
85.4523,383
85.4683,383.7
85.5228,695.8
85.5335,472.4
85.5436,787.2
85.5525,611.6
85.5652,174.7
85.5808,469.1
85.6157,79.6
85.6238,100.6
85.6256,342.7
85.6503,122.5
85.6596,738.2
85.6702,76.7
85.6841,231.1
85.7097,113.5
85.7147,245.2
85.7374,177.9
85.792,634.5
85.8197,83.6
85.8283,371.6
85.839,87.4
85.8941,840.1
85.914,398.2
85.9275,110.2
85.9331,147.3
85.9468,682.6
85.9489,127.1
85.9505,338.9
85.9537,112.6
85.9614,547.5
86.0227,324.4
86.0381,188
86.045,85.2
86.0516,196.7
86.0598,27494.8
86.0962,119599
86.0982,70.4
86.1097,282.8
86.1257,96.6
86.1375,117.7
86.1529,92.1
86.1608,21.7
86.1698,493.2
86.1911,124.7
86.272,612.2
86.2868,106.9
86.2988,446.8
86.3001,75.7
86.315,345.1
86.3404,879.8
86.3815,603.4
86.4307,150
86.4399,307.7
86.4444,362.1
86.4526,310.5
86.4542,624.5
86.4573,188.2
86.4758,193.7
86.4775,319.5
86.4905,354.5
86.519,442.7
86.5221,123
86.5269,171.3
86.552,234
86.578,668.6
86.5805,324
86.5831,855.3
86.5859,729.1
86.6127,479.8
86.6179,76
86.6324,354.7
86.6357,391
86.6654,171.9
86.6808,83.9
86.685,92.8
86.6899,17.1
86.7098,223.8
86.7182,83.2
86.7287,16.6
86.7295,19.1
86.7411,281.8
86.7699,608.1
86.7994,512
86.8447,555.3
86.8793,83.9
86.8868,292.8
86.8994,172.1
86.9093,692.1
86.9526,36.8
86.9583,202.1
86.9952,126.2
87.0387,248.8
87.047,710.9
87.055,809.8
87.0995,539.4
87.1112,191.8
87.1139,452.8
87.1359,139.7
87.1897,18.6
87.1969,307.1
87.2229,103.2
87.2632,166.7
87.2687,424.8
87.3084,78.4
87.3404,167.9
87.3582,889.1
87.3653,388.5
87.3823,467.2
87.4102,385.2
87.4135,510.1
87.4399,653.6
87.4432,313.7
87.4686,446.5
87.4707,465.4
87.4848,18.5
87.5002,440
87.5232,85
87.5372,106.1
87.5393,587.2
87.5416,239.6
87.6476,218.8
87.6762,278
87.685,299.9
87.692,505.9
87.7116,524.3
87.7436,126.3
87.7655,120.1
87.819,132.5
87.8361,178.8
87.8904,248
87.891,717.9
87.9223,725.3
87.9296,78.4
87.943,1037.3
87.9447,169.2
87.9699,17.7
88.0106,1036.4
88.0125,92.4
88.0391,5058.9
88.0407,181.6
88.0457,109.8
88.0472,79
88.048,515.5
88.1028,16.3
88.1705,179.1
88.1834,82.5
88.198,212.2
88.2203,316.7
88.3696,689.2
88.3846,219.4
88.4019,116.4
88.4352,567.4
88.4894,485.6
88.5084,386.7
88.56,102.7
88.5619,152.1
88.621,450.3
88.6428,742.9
88.6434,996.3
88.6772,445.7
88.6941,187.3
88.7405,18.8
88.8399,722.1
88.8472,638.4
88.8755,21.5
88.8839,97.3
88.8987,74.3
88.903,248.3
88.9103,82.3
88.9189,383.9
88.9521,89.3
88.9682,23.7
88.9723,103.5
88.976,741.1
88.9827,1344.3
89.0214,20
89.0284,760.6
89.0323,538.8
89.0384,138.3
89.0463,79.6
89.0566,169.3
89.0593,17.7
89.0673,99.5
89.1318,325.7
89.1347,232.6
89.1743,17.6
89.1829,20
89.2338,786.1
89.2539,332
89.26,118.4
89.2924,142.1
89.3039,201.8
89.3185,832.8
89.3536,180.1
89.3637,157.7
89.3649,22.8
89.3765,92.6
89.378,233.4
89.4171,617.3
89.4508,18.8
89.4826,73.4
89.5037,348.3
89.5128,113.3
89.5264,441
89.5272,384.3
89.536,206.1
89.5445,456.1
89.5493,144.5
89.5963,779.8
89.5976,360.8
89.6021,339.6
89.6127,168
89.6333,498.6
89.6382,16.9
89.6646,176.9
89.6663,102.9
89.684,511.4
89.7011,204.3
89.7085,171.2
89.7151,189.5
89.7184,99
89.7482,1142.1
89.7516,138.4
89.7625,612.9
89.7883,262.4
89.7979,93.5
89.8272,423.4
89.8297,89.3
89.833,25.8
89.8516,22.3
89.8604,177.4
89.8627,141.4
89.9009,135.4
89.9149,79
89.9235,143.4
89.9299,19.9
89.9607,21.9
89.9635,352.6
89.976,408.2
89.9802,227.3
89.9818,483.8
89.9954,449
89.9962,86.4
89.9975,275.2
90.0611,241.1
90.0839,167
90.0974,433.7
90.1142,118
90.1377,217.2
90.1389,188.7
90.1443,474.7
90.1515,392
90.1699,434.1
90.1852,616.2
90.209,322.3
90.2138,419.2
90.2161,90.8
90.2208,651.5
90.2372,18.5
90.2413,123.8
90.2596,293.8
90.3133,566.2
90.3295,173.4
90.3392,699
90.3546,70
90.3622,105.3
90.3721,267.4
90.4127,314.1
90.4164,90.2
90.4214,486.8
90.4231,128.4
90.4716,211.2
90.5409,132.7
90.5413,333
90.5416,307.3
90.5574,115.1
90.5844,118.6
90.6101,269.5
90.6439,131.3
90.7035,749.1
90.7039,750.7
90.7233,298.9
90.7391,76.6
90.7447,87.6
90.755,816.3
90.773,1072.8
90.7953,138.3
90.8169,86
90.8352,95.2
90.8364,99.1
90.8594,190.7
90.8871,134.5
90.8881,112.6
90.8941,136.9
90.9031,56
90.9275,217.4
90.9416,80.1
90.9475,2430.2
90.9537,356.1
90.9676,78.1
90.9765,3317.9
90.9876,511.8
90.9894,341.1
91.0223,125.9
91.044,19.4
91.054,2756.9
91.0827,219.2
91.1078,86.8
91.1258,132.1
91.1745,500.7
91.1841,81.3
91.2483,250.3
91.3969,101.7
91.4119,16.7
91.4143,364.5
91.4417,17.8
91.4887,82.5
91.5015,192
91.5084,296
91.5103,208.6
91.5121,17.9
91.5214,112.2
91.569,159.4
91.5805,82.5
91.6301,254.6
91.6988,596.9
91.6995,94.5
91.7078,369.7
91.7238,384.5
91.7326,311.2
91.7452,144.9
91.7468,127.4
91.7494,126.1
91.7559,87.4
91.7813,482.9
91.7864,212.2
91.8034,435.7
91.8159,327.9
91.8208,19.5
91.9046,316.9
91.9161,20.7
91.9235,18.2
91.9344,222.1
91.9504,178.8
91.9751,107.7
91.9788,118
91.9815,19.3
91.986,456.4
92.0347,74.5
92.0448,372.4
92.0493,165.9
92.0775,190.8
92.0833,553
92.1287,473.2
92.1823,93.1
92.1835,114.1
92.1949,921.7
92.2554,92.8
92.2602,96.4
92.2671,439.1
92.272,596.1
92.2913,351.1
92.3628,524
92.3646,132.5
92.4086,83.2
92.4124,145.7
92.4239,113.1
92.4599,113.4
92.4676,71.3
92.5138,356
92.5184,164.6
92.5259,20.6
92.5398,337.9
92.5911,16.8
92.594,86.4
92.5977,198.3
92.6359,20.1
92.6384,17
92.6475,24.4
92.6518,419.6
92.6614,17
92.7149,516.1
92.7441,19.8
92.7635,151.5
92.7839,201.2
92.8116,157.3
92.8732,271.5
92.8762,311.1
92.8867,280.9
92.9001,23.8
92.9161,566.5
92.9296,196.3
92.9632,138.1
92.9687,136.1
92.9803,375.7
93.0125,481.4
93.0162,394.9
93.0224,118.4
93.0299,285.9
93.0571,20.1
93.0623,130.8
93.0697,21.8
93.0789,988.6
93.0815,124.6
93.088,336.4
93.0933,1270.7
93.1448,950.1
93.1717,642.2
93.1923,194.6
93.211,87.9
93.2221,501.2
93.2345,95.4
93.2407,143.9
93.2441,138.5
93.246,189.9
93.2847,166.4
93.3089,17.3
93.3104,255.6
93.3238,302
93.3393,539.1
93.3632,929.1
93.3689,187.2
93.3762,347.6
93.3865,93.1
93.4147,82.8
93.4259,18.9
93.5589,638
93.5638,188.8
93.5667,124.3
93.5691,277.8
93.5715,391.3
93.6005,124.8
93.6057,82.6
93.6196,194.4
93.6245,120.2
93.6349,100.5
93.6388,197.2
93.6651,160.1
93.668,83.1
93.6713,474
93.6793,210.9
93.6825,782.3
93.7689,117.4
93.7708,363.6
93.7802,203.2
93.8247,18.2
93.8507,327.4
93.8523,153.8
93.8891,640.5
93.94,120.9
93.9498,654.2
93.9822,695.5
94.0379,187
94.0389,26
94.0393,19.4
94.0411,69668
94.0891,478.6
94.1196,18.1
94.1355,174.3
94.1602,377.6
94.1665,148.8
94.1701,94
94.1994,197.4
94.2496,657.6
94.2839,418.3
94.2895,315.1
94.2956,161.8
94.3045,19.5
94.3129,139.3
94.3164,390.3
94.3252,88.9
94.3515,103.4
94.3576,740.8
94.3975,17.2
94.4191,122.3
94.4406,138
94.4474,20.2
94.4505,388.2
94.4563,76.6
94.4577,267.1
94.4652,482.4
94.484,461.7
94.5041,948.2
94.5105,672.4
94.5135,18.7
94.5149,87.3
94.5732,109.8
94.5929,422.2
94.6014,238
94.6289,311.4
94.6488,121.7
94.6566,90.5
94.6911,198.3
94.6952,17.9
94.7169,187.8
94.7268,173.4
94.7979,75.3
94.7999,471.9
94.8297,514.1
94.8342,365.9
94.8573,23.7
94.8755,102.9
94.8927,225.5
94.9361,99.8
94.9476,876.2
94.9523,159.3
94.9754,203
94.997,786.4
95.0355,39.6
95.0445,1367.5
95.0467,46.7
95.049,388242.8
95.0504,167.9
95.051,119.6
95.0517,40.1
95.0602,237.7
95.0624,44.8
95.0671,841.2
95.0765,85.3
95.0854,337.5
95.1162,707
95.1213,92.1
95.131,326.6
95.1395,292.1
95.1819,569.5
95.1887,266.9
95.2032,577.4
95.2501,158.1
95.2785,1024.1
95.3456,1007.2
95.366,19.3
95.3678,598.1
95.3759,156.9
95.4308,298
95.4578,782.5
95.4649,68.6
95.4674,75.2
95.4721,83.1
95.476,118.1
95.5236,379.8
95.5279,97.2
95.5365,641.5
95.5377,172.8
95.541,732.5
95.5834,77.4
95.5873,431.8
95.6051,80.4
95.6288,189.1
95.6301,23
95.6391,161.3
95.6401,392.8
95.6678,506.6
95.6806,509.7
95.6825,223.7
95.695,75.5
95.7106,349.7
95.7183,327.1
95.7618,199.4
95.7809,148.8
95.8084,218.1
95.8124,137.3
95.8386,116.3
95.8575,17.5
95.9255,117
95.9289,168.1
95.9495,329.4
95.9572,388.9
95.9724,19.1
95.9843,99.9
95.993,16.2
96.0156,537.7
96.0523,18344.4
96.0553,43.1
96.0926,94.1
96.1075,109
96.1233,532.3
96.1326,196.9
96.1582,178.1
96.2225,19.1
96.2272,76.7
96.2368,77.5
96.2541,594.1
96.2551,218
96.2776,375.6
96.2891,667.5
96.2914,167.5
96.2963,109.8
96.3082,391.8
96.344,483.6
96.3839,633.5
96.426,738.7
96.4661,146.9
96.4672,673.9
96.4815,276.6
96.4848,17.9
96.5035,169.4
96.508,119.1
96.5096,190.1
96.5147,464.7
96.5208,16
96.5699,129.6
96.5816,72.2
96.628,218.1
96.6517,662.6
96.6748,879.8
96.706,584.7
96.7344,691.7
96.7425,388.7
96.7551,491.3
96.7684,106.1
96.7711,139.8
96.8493,717
96.8774,416.1
96.8997,145.9
96.9024,16
96.9061,274.8
96.9216,111419.2
96.9374,207.9
96.9471,102.2
96.957,205.7
96.9597,335.6
96.9683,108.8
96.9784,79.3
96.9796,736.2
96.9833,322.4
97.0059,174.1
97.0074,91.8
97.0104,87.1
97.0333,19.7
97.0376,1000.4
97.0424,570.7
97.0494,96.7
97.0532,39.9
97.0556,21.9
97.0725,103.2
97.0967,99.6
97.101,51.1
97.1311,18.2
97.1337,877.8
97.1593,208.1
97.1709,191.8
97.1974,327.9
97.206,106.9
97.2128,290.1
97.2226,883.5
97.2246,130.8
97.2323,756.2
97.235,153.6
97.2406,91.4
97.2436,195.3
97.2683,754
97.33,169.4
97.3473,778.1
97.3505,324.8
97.4282,16.9
97.449,79.5
97.4655,101.7
97.4891,580.6
97.5003,168
97.5059,87.7
97.5634,903.2
97.5975,701.5
97.6084,706.2
97.6248,354.3
97.6368,142.7
97.6439,515.1
97.756,111.3
97.7617,324.9
97.7946,88.1
97.8288,735.2
97.8706,106.8
97.8722,287.8
97.8832,72.9
97.9037,812.5
97.9057,340.4
97.9327,304.5
97.9928,81.5
97.995,381.2
98.0054,424.6
98.0218,18.9
98.0252,18.1
98.036,851.1
98.0502,86.7
98.078,752.4
98.0855,83
98.1023,168.9
98.138,562.9
98.1525,843
98.1591,106.1
98.1735,759.5
98.1872,383.9
98.193,376.3
98.2196,1208.1
98.2347,461
98.2645,175
98.3064,83.1
98.3199,19.7
98.37,115.7
98.3769,75.4
98.3891,87.7
98.3915,457
98.399,19.5
98.4007,87.2
98.4038,148.4
98.4126,874.8
98.4339,195.6
98.4444,228.1
98.4579,83
98.4745,129.5
98.4835,19.1
98.5284,18.4
98.5762,662.9
98.68,104.5
98.7177,19.7
98.7731,714.2
98.7878,18.8
98.7975,271.9
98.8215,100.3
98.8411,911.5
98.8434,18.2
98.8631,80.7
98.9186,30302.4
98.9197,3134.4
98.9446,205.5
98.9659,314.9
98.9752,6171.7
98.984,49.7
98.9879,279
98.9945,97.2
99.0075,85.1
99.0161,19.4
99.0285,32.6
99.0393,177.9
99.0442,167.1
99.0448,162.3
99.0618,126.2
99.065,96.3
99.095,532.9
99.102,694.9
99.1088,221
99.1112,275.4
99.1335,555.3
99.1699,74.6
99.1897,17.3
99.2324,393.4
99.2816,833.9
99.2896,138.4
99.3204,138
99.3244,90.4
99.3263,521.4
99.3345,273.5
99.4081,342.8
99.4117,81.2
99.4382,237.1
99.4647,87.7
99.5106,409.1
99.5342,236.1
99.6203,833.6
99.6291,956.4
99.6435,249.2
99.7178,135.2
99.727,395.1
99.7351,322
99.7566,134
99.7861,228.6
99.7971,408.7
99.8121,222.8
99.832,273.4
99.8407,227.4
99.8513,987.9
99.8718,78.1
99.8825,517.2
99.9287,551.2
99.9464,168.6
99.9702,20.1
99.9767,23.6
99.9904,75.1
100.0158,17.7
100.0267,587.8
100.0403,145.2
100.0558,494
100.0754,23.2
100.1025,21.5
100.1076,821.3
100.115,137.8
100.1497,83.1
100.1987,458.9
100.2213,398.3
100.2439,1157.3
100.2555,21.3
100.2904,19.1
100.2914,770.3
100.3198,1011.2
100.3389,199.2
100.3491,17.1
100.3524,145.7
100.3707,568
100.3728,796.3
100.3825,580.8
100.3886,18.2
100.3919,797.4
100.4044,360
100.4294,318.3
100.4356,210.5
100.4437,434.2
100.4713,148.2
100.4912,155.8
100.508,170.1
100.5147,393.9
100.5178,16.4
100.5197,650.4
100.5311,472
100.5409,488.8
100.5948,197.3
100.6129,21.1
100.639,219.5
100.6463,737.6
100.6477,428.8
100.663,265.1
100.7255,535.6
100.7342,134.5
100.7349,994.2
100.7852,73.4
100.8235,76.7
100.8302,86.3
100.8407,204.8
100.9371,189.5
100.9796,88
100.9951,79
101.016,433.6
101.0191,373.1
101.0354,16.8
101.0418,189.1
101.047,537.7
101.0708,889.4
101.1202,324.4
101.1499,17.7
101.1554,78.2
101.1569,111.1
101.1594,76.5
101.1881,94.5
101.1898,124
101.2007,111.7
101.2025,130.2
101.2111,75.4
101.2223,171.7
101.2682,290.3
101.2709,156.4
101.2957,748.8
101.2995,86.7
101.3008,90.6
101.3134,167.9
101.3198,272.4
101.3249,162.8
101.3308,88.5
101.3413,285.5
101.3441,164
101.3655,118.2
101.371,211.1
101.4088,15.6
101.4213,89.1
101.4239,806.5
101.4455,303.9
101.4522,19.2
101.4631,446.9
101.4787,685
101.5016,720.7
101.5261,270.2
101.527,324.5
101.5907,153.3
101.5973,111.8
101.6087,192.9
101.6611,85.9
101.6619,978.6
101.6648,82
101.6707,283.5
101.6762,313.1
101.6855,202.4
101.6892,94
101.6925,211.9
101.7016,140.9
101.7399,78.9
101.7494,106.4
101.7565,138.5
101.7667,476.2
101.8079,126.7
101.8131,889.4
101.9061,619.1
101.9407,23.7
101.95,336.6
101.9594,21.2
101.9635,215.7
101.9775,668.8
101.9926,119.4
102.0144,81.3
102.0548,4091.1
102.1342,749.3
102.1557,228.8
102.1826,664.9
102.2139,81.8
102.2404,121
102.3185,223.5
102.3403,759.1
102.3545,716.5
102.3779,77.3
102.4129,85.1
102.4349,743.2
102.5041,116.9
102.54,131.8
102.5809,230.8
102.6064,116.1
102.6321,415.6
102.6578,18.5
102.6704,122.5
102.7064,146.7
102.7114,221
102.7406,715.5
102.7432,76.9
102.7445,316.9
102.7539,357.8
102.7722,116.3
102.8262,138.6
102.8299,366.7
102.8468,682
102.9173,17.2
102.9319,128.7
102.9475,20.6
102.968,767.3
102.9701,436.8
102.9712,389.6
102.9837,20.1
102.9876,116.5
102.9957,214.1
103.0119,304.9
103.1004,126.3
103.1197,197.1
103.1608,492.8
103.1835,177.2
103.2016,90.9
103.207,88
103.2343,93.3
103.2571,103.9
103.2744,95.3
103.358,18.2
103.3872,280.6
103.4058,19.4
103.4088,668.4
103.4299,115.2
103.4587,189
103.5022,848.8
103.5033,121.1
103.5911,105.4
103.5957,401.2
103.6084,99.2
103.6156,555.3
103.6252,102.3
103.633,444.6
103.6495,313.5
103.6966,128.8
103.7157,331.1
103.7386,179.2
103.7885,1105.8
103.7947,601.9
103.8201,95.6
103.8391,126
103.8552,17
103.856,419.7
103.8642,136.5
103.8948,82.1
103.9081,800.9
103.9416,342.4
103.9575,108.3
103.9629,237.8
103.9663,26.1
103.9792,246.9
103.9843,132.5
104.0017,111.9
104.0105,18.2
104.0267,372.1
104.0312,112.2
104.04,18
104.0509,162.3
104.0528,84.8
104.0664,838.5
104.0744,168.5
104.0812,197.2
104.0835,363.8
104.1068,501509.6
104.1107,15.4
104.1629,118
104.1823,19.2
104.1838,166.7
104.2093,174.6
104.2211,75.5
104.2259,441.1
104.2418,488.4
104.2574,19.3
104.3046,217.4
104.3293,179.9
104.346,18.3
104.3513,179.8
104.3659,274
104.4004,829
104.4398,449.8
104.4431,525.7
104.5639,92.1
104.576,166
104.593,533.9
104.6678,207.8
104.674,200.8
104.7136,128.4
104.733,90.8
104.8005,125.2
104.9076,23
104.9479,148.6
104.9537,663
104.9632,4149.8
104.9922,1356.1
105.0149,135.9
105.0334,16.3
105.0446,38707.5
105.0697,27.2
105.0743,18.7
105.1102,21065.8
105.1118,113.5
105.1667,108.6
105.1934,81.6
105.2007,125.2
105.2025,86
105.2252,719.4
105.2586,19.1
105.2843,908.2
105.2874,83.5
105.2991,88.6
105.3136,468.8
105.3376,86.3
105.3444,115.2
105.3886,98.1
105.4156,740.6
105.4479,148.2
105.4636,727.9
105.5232,201.8
105.55,18.2
105.5513,483.3
105.5717,473.5
105.5788,15.6
105.6663,1081.6
105.6868,105.1
105.7038,233.3
105.7501,154
105.7636,138
105.7842,474
105.7968,333.4
105.8251,493.7
105.8439,609
105.8488,619.6
105.9231,516.1
105.9314,449.3
105.952,230.8
105.9544,18.5
105.9566,341.3
105.9637,59.4
105.9922,184.7
105.9941,822.5
106.0188,19.7
106.048,812.2
106.0555,141.8
106.0649,26.1
106.1387,571.9
106.232,277.9
106.2562,542.3
106.3279,19.9
106.3558,161.2
106.4164,483.3
106.4225,468
106.4356,554.6
106.4599,18.2
106.4858,80.1
106.4873,80.5
106.5344,323.1
106.5874,90.7
106.5978,94.9
106.6155,178.3
106.6187,641.2
106.6478,77.4
106.6481,77.5
106.6564,139.7
106.7386,100.6
106.7552,77.2
106.7606,20.2
106.7681,253
106.8192,17.5
106.8631,92.4
106.8641,17.3
106.8941,201.9
106.9013,634.9
106.9433,18.3
106.9505,1699.9
106.9636,103.8
106.9917,36.3
107.0281,100.7
107.0313,387.9
107.049,383.9
107.0727,347.3
107.0853,25.9
107.1267,666.9
107.1608,416.2
107.2185,522.3
107.2265,219.6
107.2298,539.6
107.2428,88.7
107.2445,202.5
107.258,97.7
107.2803,663.7
107.3579,82.9
107.3658,75.3
107.3898,93.4
107.4162,89.9
107.4426,310.4
107.5137,97.4
107.5262,90.6
107.5296,78.9
107.5505,248.7
107.5722,154.6
107.5757,134.9
107.6129,408.6
107.6251,81.7
107.6582,130.8
107.6782,19.9
107.7361,109.8
107.7535,447.1
107.7879,374.2
107.7939,700.9
107.8352,185.4
107.8581,237.3
107.9289,891.9
107.9647,447.2
107.9952,561.4
108.0489,86.9
108.0523,112.5
108.0537,115.8
108.095,862
108.1001,422.8
108.1068,420.4
108.1186,615.4
108.1577,129.6
108.1671,401.5
108.1991,387.6
108.2393,359.6
108.2509,189.5
108.272,71.9
108.2752,619.6
108.3085,19.2
108.3572,149.3
108.4421,169.4
108.4581,125.8
108.4627,654
108.4701,116.3
108.491,83.2
108.5213,118.1
108.5399,770.3
108.5843,208.5
108.6211,177.6
108.622,285.5
108.6266,231.7
108.6384,17.7
108.7057,793.7
108.7218,640.1
108.7853,137.9
108.8571,747.4
108.8791,410.5
108.8908,1085.8
108.9077,865
108.9214,107.1
108.9271,20.1
108.9393,123.6
108.9582,118.7
108.9819,19.3
109.0104,46.6
109.0286,440.3
109.0513,22.7
109.0646,74174.8
109.101,28.9
109.1063,73.1
109.1179,391
109.1353,765.2
109.1667,166.5
109.1849,18.6
109.2056,627.6
109.234,899.2
109.2579,458.2
109.3226,737.1
109.3612,619.6
109.3708,175.4
109.3781,589.4
109.4019,300
109.4342,407.2
109.5148,185.4
109.5203,105.6
109.568,111
109.58,200.8
109.5966,170.6
109.6067,159.6
109.6275,457.9
109.651,140.6
109.6707,339.3
109.721,137
109.724,172.7
109.7327,436.7
109.7595,107.4
109.7764,129.9
109.7988,19.8
109.8008,574.4
109.802,88.2
109.8059,937.8
109.8249,86.9
109.8459,575.9
109.8464,570.7
109.8503,297
109.8592,83.8
109.8696,107
109.8984,83.1
109.9391,116.7
109.9402,736.8
109.9485,403
109.961,194.8
110.0049,564.5
110.0135,421.3
110.0155,20.1
110.0401,17.3
110.0456,18.8
110.068,3330.2
110.0711,1436.1
110.081,118.7
110.0963,243.2
110.1652,403.1
110.1774,20
110.2122,765.7
110.2221,100.3
110.2328,109.5
110.2818,191.1
110.3301,109
110.3382,137.1
110.3755,444.2
110.3948,73.6
110.4023,442
110.4335,118.1
110.4591,840.7
110.4668,84.7
110.4681,124.2
110.4797,494.5
110.519,445.7
110.5245,131.3
110.6547,86.7
110.7401,530.4
110.8017,106.5
110.8747,553
110.8797,390.9
110.9013,264.9
110.911,830.7
110.9414,328.7
110.9515,217.1
111.0204,16.7
111.0231,299.8
111.0438,560.4
111.0711,852.8
111.0803,18.6
111.117,398.7
111.1451,219.4
111.2413,230.6
111.2438,123.7
111.2782,73.4
111.2798,140.6
111.2812,756.5
111.2866,97.9
111.3057,220.9
111.3068,91.1
111.3185,656.8
111.3279,98.3
111.3839,105.8
111.3912,77.1
111.4553,80
111.4632,203.7
111.5014,95.1
111.5153,217.3
111.5612,182.9
111.6014,366.5
111.615,89
111.6182,122.4
111.6291,142.6
111.6425,113.5
111.6616,383.7
111.6764,199.3
111.6814,895.5
111.7127,354.8
111.7159,132
111.717,500.9
111.7348,465
111.7369,385.2
111.7441,672.7
111.7463,87.4
111.7828,18.1
111.9982,479.2
112.062,490
112.0887,19.5
112.0993,100.7
112.1641,254.8
112.1901,79.1
112.1984,111.5
112.2072,116.4
112.2204,302.5
112.2638,885.9
112.3395,313.6
112.4046,125.8
112.5186,228.2
112.5471,143.9
112.5547,127.5
112.6112,181.6
112.6488,79.8
112.6696,417.1
112.6769,16.7
112.6832,403.9
112.7392,191.2
112.7452,354.3
112.7523,17.2
112.7613,17.5
112.7815,162.8
112.7937,83.5
112.8056,542.4
112.8686,144.1
112.8956,432385.7
112.9026,630.9
112.9472,210.1
112.9549,684.1
112.9662,101.6
112.9753,817.8
112.9869,79.3
113.0259,145.5
113.0978,101.7
113.1072,769.2
113.1404,85.5
113.146,18.2
113.1624,314.3
113.1697,18.2
113.2411,85.7
113.244,474.8
113.346,1116.3
113.4373,775.3
113.4922,21.2
113.5062,87.3
113.5817,18.6
113.5924,166.7
113.6205,127.7
113.7064,381
113.7133,169.6
113.7722,358.9
113.7866,19.3
113.8243,109.1
113.8792,175.3
113.8868,432.9
113.9498,20.4
113.9736,511.6
113.9773,252.5
113.9842,16.7
114.0079,134.1
114.0124,104.2
114.0515,434.5
114.0548,42751.9
114.066,7758
114.0877,126.3
114.1158,540.9
114.1591,163.4
114.1989,131.6
114.216,308.1
114.2351,251.2
114.3029,201.9
114.308,291.5
114.3102,419.3
114.4019,268.4
114.4622,663.2
114.4673,182.6
114.4746,184
114.5124,87.3
114.5143,487.9
114.527,17.2
114.5293,151.3
114.5405,390
114.5457,98.4
114.6125,373.8
114.6498,112.5
114.6552,212.9
114.6793,129.8
114.695,304.2
114.7517,92.2
114.8325,97.7
114.8926,135864.2
114.9118,392.7
114.9363,124.5
114.9481,400.6
114.9728,368.3
114.975,424.7
114.9799,931.5
114.9837,395.4
115.0091,445.7
115.0146,18.3
115.0245,262.2
115.0365,19.9
115.0582,139.8
115.0638,292.7
115.0865,351.7
115.104,81.3
115.1051,305.7
115.1134,74.2
115.1418,277.1
115.1964,406.3
115.2192,389.8
115.2346,533.1
115.261,400.6
115.2999,88.2
115.3088,110
115.324,182.5
115.3552,310.3
115.3621,98.3
115.3629,95
115.3651,219
115.3689,1072.1
115.3827,516.1
115.4097,77.2
115.4418,135.2
115.6354,640
115.6631,169.2
115.7029,104.1
115.7483,103.5
115.8612,102.7
115.872,220
115.9227,392.8
115.9239,209.4
115.9483,51.7
115.9792,460.8
115.9847,857.8
116.0532,192.6
116.0559,341.3
116.0666,116.5
116.0705,2116.2
116.0965,84.5
116.1073,200.5
116.1138,18.1
116.1185,893.3
116.1363,18.9
116.151,217.7
116.1521,194.5
116.1852,209.7
116.194,184.7
116.2293,89.2
116.2366,274.4
116.2602,363.4
116.2799,182.6
116.3266,337.4
116.3345,189.8
116.3435,20.6
116.366,358.2
116.3955,122.2
116.3987,204.5
116.4299,580.1
116.4356,117.6
116.4474,719.3
116.4535,176.3
116.5351,468.4
116.58,178
116.5911,801.8
116.6333,811.2
116.6562,77
116.7078,316.3
116.7307,691.8
116.7356,78.6
116.7677,315.2
116.7755,19.6
116.7959,419.2
116.8084,17.6
116.888,1015.4
116.8908,12752.2
116.9425,261.3
116.9473,19.7
116.9488,139
116.9632,169.5
116.9842,56.2
116.9858,459
117.0071,357.3
117.0477,503.7
117.1549,764.7
117.2639,17.5
117.3522,288.9
117.3743,78.1
117.3777,71
117.4056,84.6
117.452,938.6
117.475,121.5
117.4912,266.9
117.5023,17.7
117.5145,16.9
117.5198,465.9
117.5439,110.6
117.5538,1016.6
117.5676,240.8
117.5869,300.2
117.5995,267.8
117.7308,806.3
117.7459,21
117.7533,346.5
117.7869,515.2
117.843,118.1
117.9084,142.4
117.9213,144.7
117.9316,298.5
117.967,318.1
117.9754,201.7
117.9807,87.5
117.9876,428
118.0135,157.7
118.0169,871.8
118.0633,297.9
118.0735,86.4
118.09,415.4
118.1072,115.2
118.1233,78.4
118.1763,398.3
118.2244,406.5
118.2308,142.9
118.241,17.2
118.2508,192.2
118.2631,1067.5
118.2853,21.8
118.3509,83.6
118.3924,141.6
118.401,484.1
118.4485,1029
118.4711,593.4
118.4802,93.5
118.4858,485
118.6593,112.4
118.6758,386.8
118.6781,89.3
118.6835,261.5
118.7094,225.4
118.7154,348.5
118.7198,187.3
118.758,17.6
118.7997,17
118.8102,103.7
118.8121,459.3
118.8171,86.3
118.8198,97.3
118.8819,353.1
118.9134,79.6
118.9307,693.2
118.941,88.5
118.9425,589.3
118.9526,81.4
118.9688,75.6
118.9704,255.3
118.972,316.4
118.9789,1162.8
119.0109,623.9
119.0189,44.3
119.0383,160.1
119.042,805.3
119.0625,846.1
119.0823,147.4
119.1498,73.7
119.1542,663.9
119.1714,221.9
119.1913,85.2
119.1937,714.4
119.212,186.6
119.2393,682.1
119.2608,182.9
119.2689,98.9
119.2774,91.6
119.3118,87.6
119.3192,296
119.3439,78.9
119.4601,229.1
119.5088,329
119.5174,103.7
119.5313,295
119.5559,781.9
119.5899,775.8
119.6124,17.4
119.6146,17.3
119.742,21.9
119.7615,17.4
119.7723,80.2
119.7799,153.1
119.7952,164.1
119.8094,160.8
119.8692,198
119.8836,125.9
119.9531,149.4
119.9617,98.8
119.9915,733.6
120.003,1119.6
120.0283,21.5
120.0358,335.4
120.0387,106.5
120.0466,449.6
120.0806,11152.9
120.0965,183.3
120.1347,172.8
120.1556,758
120.2139,737.5
120.2559,138.7
120.2691,18.6
120.2714,670.5
120.2886,16.8
120.3328,120.2
120.3374,379.4
120.3885,137.1
120.4186,424.1
120.4341,171.4
120.4544,900.6
120.4879,731.3
120.5186,763.5
120.5703,590.8
120.5731,145.4
120.6197,178.5
120.6243,76.1
120.6346,82
120.6902,297
120.7037,116.3
120.7495,339.7
120.875,365.2
120.904,274.4
120.9328,462
120.9513,187.2
120.959,513.5
120.9695,19.5
120.9793,36.5
120.9808,153.7
120.9977,108.7
121.002,115.1
121.0075,280.4
121.0283,145.3
121.0372,331.4
121.0394,24.4
121.0803,97.8
121.1011,28.2
121.1373,309.6
121.1456,360.4
121.2138,205
121.2252,96
121.231,278.1
121.244,76.2
121.2717,350.9
121.2856,98.8
121.3317,86.7
121.3972,951.8
121.4032,447.2
121.4663,286.9
121.4992,22.7
121.5107,16.4
121.5141,513.5
121.5545,206.6
121.5639,125.9
121.5857,96.8
121.5963,165.5
121.6897,197.6
121.6925,132.6
121.6991,636.3
121.703,381.3
121.7129,220.4
121.7543,147
121.832,20.2
121.8461,100.9
121.8753,121.7
121.9156,327.9
121.9493,187.3
121.9883,152.6
121.9965,85.7
122.0008,195.5
122.0249,577.9
122.0777,151.1
122.0902,93.2
122.1195,17.2
122.1299,383.7
122.1382,188.4
122.2522,100.6
122.2859,90.7
122.3254,118.7
122.3371,197.8
122.3629,112
122.385,729.6
122.3963,21.3
122.4393,230.8
122.443,663.3
122.4635,490.8
122.4952,22.8
122.5657,112.4
122.6622,816.1
122.676,370.6
122.6825,175.8
122.6953,720.4
122.7015,82.6
122.7403,136.9
122.7644,199.7
122.7727,516
122.8295,483.5
122.8339,290.5
122.8469,188.5
122.865,119.2
122.8788,84
122.8909,104.9
122.9157,359.2
122.9244,16497.3
122.9738,249.6
123.074,167.1
123.0774,17.6
123.0804,27.9
123.0865,534.3
123.1155,387
123.1602,787
123.1625,174.7
123.1696,227.1
123.1932,19.6
123.2061,689.3
123.2739,70.8
123.2947,88.4
123.3096,104.5
123.3193,264
123.362,287.6
123.3809,82.5
123.3888,161.8
123.4433,295
123.4679,153.8
123.5542,120.4
123.5879,729.8
123.627,244.3
123.6731,608.5
123.7071,76.9
123.7083,576.7
123.75,400.9
123.7562,197.6
123.8223,379.4
123.8802,318.4
123.8859,108.2
123.8914,298.8
123.9245,76.8
123.9777,386
124.0348,90.6
124.0554,392.2
124.1309,124.6
124.2113,17.4
124.236,192.9
124.2418,191.4
124.2538,115.7
124.2946,699.7
124.3727,90.8
124.4299,146.2
124.4396,82.5
124.4461,657.2
124.4993,97.3
124.5479,747.7
124.5556,17.5
124.5577,199.3
124.5601,160.6
124.5795,819.9
124.5835,464.8
124.6521,417.4
124.6805,880.4
124.6856,223
124.6889,77.3
124.7525,878.5
124.8124,19.1
124.8182,272.1
124.8213,18.7
124.8301,397.4
124.8737,87.8
124.9138,685.5
124.9225,803.5
124.9358,100.4
124.9508,84.9
124.9997,4548.1
125.0055,899.7
125.0264,177.9
125.0388,190.8
125.0597,50.9
125.0729,161.5
125.0962,18.2
125.1073,176.7
125.1104,216
125.2336,661.2
125.2403,124.8
125.2697,310.3
125.3119,90.8
125.3323,387.7
125.4087,650.6
125.4365,18.4
125.4556,79
125.4689,551
125.4763,558
125.4823,129.8
125.5051,107.8
125.5109,104.3
125.5189,117.7
125.5972,467.4
125.645,20.6
125.6911,711.1
125.7051,733.6
125.7534,17.4
125.7827,85.4
125.8314,121.9
125.9136,403
125.933,19.3
125.9644,109.3
125.9653,131.3
125.9736,16.5
126,146
126.0099,94.7
126.0335,83.3
126.0506,117
126.0614,929.7
126.0973,798.7
126.1283,559.6
126.1531,358.9
126.1713,158.8
126.2017,264.5
126.2171,133.4
126.2234,205.6
126.2882,21.3
126.3291,86.3
126.3451,102.6
126.4185,554.3
126.4216,74.9
126.4464,75.1
126.493,79.6
126.5029,20.1
126.55,355.1
126.5597,379.6
126.675,701
126.6925,83.4
126.7293,16.2
126.7346,90.4
126.7856,226.6
126.8466,113.3
126.8994,787.3
126.9152,495
126.943,124.9
126.9465,196.3
127.0012,40.2
127.0086,388.5
127.0477,295
127.0718,114.9
127.0786,648.7
127.0808,305.7
127.1094,152.8
127.1127,234.3
127.1306,125.1
127.2295,18.4
127.2891,96.5
127.3534,513.1
127.3618,231.4
127.4586,18.3
127.4837,18
127.4993,373.2
127.5209,335.4
127.5696,207.3
127.6437,99.4
127.6668,439
127.7096,19.1
127.7187,109
127.7282,149.4
127.7473,203.9
127.7711,638.7
127.7763,134.6
127.8012,589.2
127.8157,16.7
127.8508,323.3
127.8768,733.3
127.8847,112.6
127.8925,102.8
127.8997,337.3
127.9137,183.7
127.9573,109.4
127.9806,102
128.0014,457.4
128.0411,230.8
128.0742,390.2
128.1066,19.9
128.1235,411.5
128.1675,210.4
128.1972,177.9
128.2117,594.9
128.3107,827.6
128.3945,355
128.4411,105.1
128.4868,564.2
128.4904,340.5
128.4992,216.3
128.5154,405
128.5355,18.2
128.5713,273.3
128.6085,823.8
128.6155,124.5
128.639,89.8
128.6414,18
128.6446,172.4
128.6484,79.1
128.6564,86.8
128.6619,20.4
128.6895,172.5
128.7029,878.3
128.752,144.5
128.7554,198.2
128.7705,178
128.9638,452.9
129.0012,23.9
129.0032,793.9
129.0224,83.3
129.0279,84.6
129.0419,82.9
129.0528,17.5
129.0658,1559.5
129.0683,421.4
129.0696,144.7
129.0798,83.1
129.1157,439.2
129.124,823.7
129.1577,18.2
129.1871,890.1
129.1965,640.7
129.3844,191.3
129.3931,608.4
129.4,229.4
129.4489,598.5
129.472,261.9
129.4788,425.8
129.517,96.6
129.5241,883.8
129.5578,247.3
129.5746,18.4
129.6393,18.7
129.6544,139.3
129.6765,936.3
129.7169,102.8
129.7827,870.2
129.8394,312.8
129.8506,318.3
129.8736,286.8
129.9225,319.2
129.9348,467.4
129.9496,90.8
129.9513,173.9
129.9585,120.3
129.9877,18.4
129.9949,154.1
129.9977,143.2
130.0112,158.5
130.0254,85.7
130.0498,6518.6
130.0698,509.5
130.1127,608.3
130.1211,169.3
130.1319,223.2
130.1444,186.1
130.1767,284.7
130.2092,18
130.2652,142.1
130.2746,210.6
130.2939,229.4
130.3415,759.7
130.3562,94.4
130.3628,92.1
130.3665,134.8
130.3778,79.6
130.3902,199.3
130.3987,84.5
130.4375,143.2
130.4646,96
130.4748,187
130.4801,580.7
130.5085,905.1
130.5668,208.1
130.6072,127.7
130.6262,218.7
130.6929,82.2
130.7326,82.6
130.7793,590.4
130.7843,96.8
130.7859,105.3
130.8058,195.9
130.8124,402.9
130.8675,349.1
130.8925,683.8
130.9101,170.2
130.9404,124.8
130.9743,957.7
130.9787,48.6
131.0001,464
131.03,784.1
131.1014,182
131.1409,337.6
131.2597,440.1
131.3129,365.8
131.3148,190.9
131.3318,101
131.404,89.1
131.432,832.8
131.5198,23.3
131.528,326.4
131.5498,106.2
131.6108,688.8
131.6195,269.6
131.638,861.5
131.6537,18.5
131.7475,98.4
131.753,200.6
131.7775,222.4
131.8215,757.5
131.862,659.1
131.9268,140.9
131.931,840.7
131.9348,104.5
131.9382,372.7
131.9624,453.1
131.9708,16.8
132.0031,37923.5
132.0333,98.6
132.0516,90.5
132.0566,351.7
132.0654,77681.8
132.0722,472.6
132.0884,82.4
132.1132,17.5
132.1188,83.6
132.1779,747.6
132.1804,350.4
132.2001,416.5
132.2125,188.9
132.2232,754.3
132.2429,18.4
132.2708,379.8
132.3514,17.7
132.3717,90.6
132.4047,368.4
132.4305,87.8
132.4817,85.2
132.6129,876.2
132.6578,20.2
132.677,487.1
132.7381,80.9
132.7752,552.4
132.8574,92.7
132.8967,393.8
132.9027,36.6
132.9137,123.9
132.9316,538.8
132.9521,93.4
132.9582,749.4
132.9643,210.7
132.9695,55.6
132.9817,86.1
132.9871,348.7
132.991,192.8
133.0077,22.3
133.0329,195.4
133.0345,21.2
133.0384,137
133.0688,1302.2
133.0971,20831
133.1599,813.2
133.2007,421.1
133.235,70.6
133.2356,68.8
133.2755,74.7
133.3015,193.2
133.3409,575.7
133.3597,170.6
133.3656,469.1
133.4549,92.3
133.4975,78.2
133.5048,607.4
133.5141,91.6
133.5426,84.8
133.5466,84.9
133.6445,113.1
133.6536,229.3
133.6621,342.9
133.7009,186
133.8348,19.7
133.8735,140.4
133.8995,122.2
133.9289,864.2
133.9495,116
133.9589,538.5
133.9812,26.5
133.997,854
134.0188,5586
134.0527,79.5
134.0533,84.6
134.0747,19.1
134.103,186.2
134.1275,93
134.1703,192.6
134.2441,676.3
134.3174,122.3
134.3208,88.2
134.365,80.2
134.3883,279.6
134.393,19
134.4644,408.5
134.5126,71.2
134.5785,18.9
134.6468,115.3
134.666,609.8
134.7224,431.9
134.7262,103.1
134.7642,176.2
134.7971,123.2
134.8399,117.2
134.8417,423.9
134.8631,694.2
134.8732,20.1
134.8784,194.3
134.8902,74.9
134.8923,318.3
134.9136,506.5
134.9381,106.6
134.9473,82.5
134.9515,607.5
134.9891,144.1
134.9961,374.2
135.0028,68706.1
135.0223,554.5
135.0308,318.3
135.0981,267.8
135.1014,754.8
135.1168,19.6
135.1231,166.4
135.1251,656.2
135.1387,93.8
135.1468,190.1
135.1607,784.2
135.1639,788.8
135.172,375.9
135.3771,568.5
135.3824,83.2
135.3914,389.3
135.4273,411.3
135.4794,192.8
135.49,24.2
135.5109,127.9
135.5183,952
135.5281,16.3
135.5381,156.9
135.5467,837.7
135.5565,92.7
135.6295,690.3
135.6397,179.3
135.6513,125.3
135.6537,520.7
135.6581,142.2
135.6815,937
135.6961,104.3
135.7067,93
135.7144,323.2
135.7307,117.5
135.7603,233.4
135.7944,186.9
135.803,19.1
135.8137,83.9
135.8628,260.9
135.8806,132.7
135.8901,696.6
135.9194,86.5
135.9771,1249.4
136.006,990.3
136.0287,159.6
136.0481,14162.6
136.0604,345
136.0757,7214.7
136.1887,99.6
136.2226,258.6
136.2288,124.2
136.2442,330.1
136.2764,481.4
136.4658,889.5
136.5128,151.7
136.5488,101.4
136.6116,19.8
136.6476,72.6
136.6546,939.6
136.6737,130.5
136.6868,393.4
136.7785,596.3
136.796,17.4
136.8816,164.8
136.9191,390.5
136.9256,214.6
136.9436,623.5
136.9531,143.4
136.9779,561
136.9786,607.8
136.9895,147.3
137.0174,143.7
137.0323,133.5
137.0466,172
137.0508,493.8
137.0596,24.6
137.0984,92.1
137.1212,305.3
137.1274,124.2
137.1429,148
137.1619,114.7
137.1764,200.4
137.1906,230.6
137.2005,425.9
137.2219,310.8
137.3146,360.6
137.425,122.6
137.4267,396.6
137.4397,196.2
137.4426,741.8
137.4746,379.5
137.501,603.4
137.5029,94.2
137.5176,150.2
137.5684,228.2
137.5723,147.4
137.5763,294.2
137.588,345.7
137.6178,79.3
137.6354,119.2
137.8311,312.2
137.8975,172.2
137.9868,104.9
138.0165,92
138.0307,558.4
138.0525,5783.7
138.0661,44.7
138.0877,222.4
138.1272,435.7
138.1328,19.3
138.1344,138.4
138.1401,556.1
138.1418,429.6
138.1578,447.1
138.1841,171.9
138.1902,168.6
138.1988,92.5
138.2013,110.6
138.2062,162
138.2081,140.8
138.2256,212.2
138.2618,76.9
138.2628,77.6
138.3029,172
138.362,368
138.3919,104.5
138.4011,17.4
138.4142,568.8
138.4166,425.9
138.4207,134.8
138.4726,720.3
138.5225,416.4
138.5848,224.1
138.6813,197.4
138.6842,96.5
138.6925,705.1
138.7042,159.3
138.7141,83.7
138.7573,114
138.7594,454.4
138.7968,146.3
138.8172,454
138.8243,184.8
138.8255,19.9
138.8342,206.4
138.8473,411.3
138.8528,147
138.8711,20.5
138.8849,83
138.9064,617.9
138.9286,635.4
138.9356,784.4
138.9382,617
139.0049,598.7
139.0082,24.8
139.0404,83.9
139.0529,81.3
139.0777,410.7
139.1229,139.6
139.1299,342.3
139.2155,122.2
139.2263,84.9
139.3081,186
139.3205,118.6
139.3331,114.8
139.4535,73.6
139.5487,79.6
139.5559,85.9
139.6103,387.3
139.6755,600.6
139.8451,187.4
139.8501,166.7
139.8599,205.8
139.9197,82.8
139.9885,18.3
140.0164,3421.6
140.0681,1854.2
140.0893,19.9
140.1187,179
140.1244,168.4
140.1309,602.3
140.1424,83.5
140.1478,379.3
140.156,20
140.1601,17.7
140.1945,1189.3
140.2085,287.7
140.2774,108.6
140.2918,303.5
140.3338,623.1
140.3577,821.1
140.401,102.9
140.4667,709.1
140.4722,687.6
140.5993,291.6
140.645,22
140.6738,106.7
140.7461,947.8
140.7523,272.1
140.8742,420.1
140.9033,424.9
140.9225,468.1
140.9846,951.1
140.9894,18.4
141.0004,18577.9
141.0153,24
141.0198,156.2
141.1105,416.3
141.1981,468.2
141.2243,136.4
141.2354,373.2
141.2457,176.6
141.2539,103.1
141.3486,1042.3
141.3764,362.9
141.4579,19.6
141.4749,79
141.5431,94.6
141.6453,277.6
141.7131,405.6
141.7606,214.3
141.8933,512.2
141.9757,406.7
141.9949,168.2
142.0038,404.7
142.0122,113.6
142.0148,226.4
142.0651,544.5
142.0776,20.5
142.1055,110
142.1384,254.9
142.2055,461.1
142.2175,211.2
142.2304,111.1
142.2707,670.1
142.2788,686.5
142.2851,139.7
142.2944,17
142.3074,174.9
142.3643,789.2
142.3755,154
142.3816,696.2
142.4031,19.3
142.5443,467.1
142.5604,109
142.6223,775.7
142.6357,138.6
142.6492,169.5
142.6582,286.1
142.6894,181.7
142.7427,24.3
142.7972,366.9
142.8008,298.4
142.8101,131
142.8646,499.1
142.8782,231.4
142.8898,106.3
142.9492,85
142.9835,153.8
142.9859,400.7
142.9962,260.1
143.0189,886.6
143.0703,544.4
143.0815,88.5
143.1002,557.1
143.1598,179.2
143.277,166.8
143.3868,182.1
143.4364,164.1
143.4458,892.9
143.4882,349.6
143.5049,85.3
143.5117,773.6
143.5734,170.4
143.589,788.8
143.6008,229.8
143.6053,548.5
143.6198,251.2
143.6826,490.4
143.6966,99.2
143.7365,676.8
143.8108,186.9
143.862,20.7
143.8685,621.6
143.8711,18.4
143.8822,414.4
143.9083,102.9
143.9177,23.9
144.0028,117.9
144.0106,745.5
144.0286,137.6
144.0648,755
144.1018,373
144.1425,350.9
144.1444,120
144.1535,199.5
144.1707,127.3
144.1992,286.9
144.3039,108.9
144.3857,525.5
144.4224,279.5
144.4465,18.3
144.4615,19.4
144.4868,118.6
144.5407,135.9
144.5468,719.3
144.6371,514.4
144.7004,237.9
144.727,124.3
144.7835,173.3
144.8171,19.8
144.835,274.2
144.8855,741.7
144.9551,19.8
144.9807,1587.7
144.9947,59.5
145.016,27.1
145.0236,15.6
145.1065,522.2
145.1141,177.3
145.1383,315.9
145.1844,77.7
145.306,250.3
145.316,277
145.3805,178.1
145.4089,538.4
145.4133,169.9
145.4196,113.1
145.4721,562.3
145.4774,265.8
145.5652,247.9
145.569,512.3
145.5761,183.7
145.592,517.7
145.6742,194.7
145.6931,552.4
145.7236,82.2
145.7718,986.7
145.7889,129.7
145.832,813
145.8415,94.2
145.894,147
145.9113,69.2
145.9126,543.2
145.9191,92.7
145.9476,114.8
145.9667,19.5
145.9872,117.5
145.9902,368.3
145.9936,750.9
146.0039,99
146.0124,2218.7
146.0188,20772.4
146.0262,80.1
146.0929,977.1
146.0965,22.7
146.1007,513.2
146.1144,96.6
146.1764,615.4
146.1834,19.4
146.2116,97.9
146.2655,716.1
146.2777,165.5
146.2924,89
146.3018,159.4
146.3303,512.3
146.3382,570.2
146.3418,172.1
146.3705,18
146.4019,869.1
146.4039,478.8
146.4163,1016.9
146.4307,87.5
146.4729,97.3
146.4834,143.7
146.4893,772.1
146.5462,16.5
146.5516,169.8
146.6299,227.7
146.6441,111.7
146.6726,18.9
146.7518,839.5
146.7732,394.4
146.7944,197.2
146.8457,344.4
146.8542,273.9
146.8714,118.5
146.9054,22.8
146.9161,259.1
146.9267,999.2
146.9526,186.3
146.972,714.6
146.974,42.8
146.9817,117894.6
147.0764,52243.6
147.1128,33128.2
147.1168,1708.8
147.1648,18.3
147.1726,170
147.181,21.9
147.2001,680.4
147.2083,92.4
147.3127,204.8
147.5455,793.3
147.578,17.7
147.6118,269.6
147.6555,327.3
147.7136,195.9
147.8102,398.4
147.8592,183
147.9398,92.2
147.9532,96.3
147.9773,235
148.1931,125.1
148.237,213.7
148.4529,420.7
148.4832,537.6
148.4861,324.5
148.5237,146.9
148.5321,2114.2
148.5492,829.5
148.5558,21.8
148.5609,96.1
148.5787,133
148.6171,126.3
148.6221,562
148.63,381.1
148.6305,399.2
148.6736,18.6
148.7117,17.3
148.7297,136.5
148.7365,113.2
148.7789,158.7
148.7821,180.5
148.8321,457
148.8704,107.9
148.8808,680.3
148.9611,3320.1
148.9706,111.8
148.9821,504.6
148.9863,831.8
148.9887,105.8
149.0185,1767.5
149.0233,4280.6
149.0294,137.2
149.0448,63.3
149.1048,1330.7
149.2047,297.3
149.2869,205.5
149.3709,907.3
149.3853,150.4
149.3982,327.1
149.419,508.8
149.4436,379.4
149.5208,16.8
149.5277,102.9
149.669,77.6
149.6927,130.4
149.7434,81.2
149.7644,21.9
149.7739,283.6
149.7992,138.3
149.8424,455.3
149.8872,599.2
149.9872,61.3
149.9927,5038.9
150.0074,252.2
150.0092,660.5
150.0137,532.7
150.0266,58.6
150.0314,745.5
150.0611,91.8
150.1087,126.9
150.1876,163.9
150.2265,709.4
150.3004,552.9
150.3113,31.2
150.3207,537.4
150.3425,235.4
150.4029,134
150.4297,657.9
150.5074,672.8
150.5102,669.5
150.5173,70.6
150.5235,874.6
150.5438,467.5
150.5848,239
150.5911,338.5
150.6024,83.7
150.6597,20
150.7074,656
150.8186,136.2
150.8387,111.1
150.8985,128.9
150.9018,80.6
150.9396,379.6
150.9688,126.5
150.9767,49662.3
150.9841,3303.7
150.9875,753.3
151.0068,25.4
151.0185,88.5
151.0478,2963.7
151.1047,653.1
151.1076,304.8
151.1378,235
151.1719,365
151.24,76.3
151.3874,423.9
151.4161,933.7
151.4209,604.7
151.4974,108.1
151.5257,159.3
151.5545,763.3
151.6508,434.2
151.6978,144.9
151.7055,161
151.7097,720.1
151.7979,527.6
151.8351,94
151.8562,18.8
151.9197,706.6
151.9346,964.3
151.9492,317
151.9846,20.5
151.9874,145.8
151.992,34
152.022,23747.8
152.0317,1556.5
152.0346,542.8
152.0597,76.5
152.1069,136.2
152.1235,125.6
152.1299,281.8
152.1437,807.9
152.1901,416.9
152.1987,368.9
152.2781,124.2
152.3001,391.4
152.306,81.4
152.3304,297.6
152.3405,344.8
152.4399,587.7
152.4556,150.3
152.4703,198.3
152.5374,379.3
152.5627,426.4
152.5783,860.3
152.589,283
152.6046,19.3
152.6187,86.1
152.7207,147.7
152.7325,270.8
152.8394,18.5
152.8503,245.1
152.902,769.3
152.9585,223.2
152.975,1767.2
153.0084,106.4
153.0253,672.9
153.0299,304.1
153.0795,105.2
153.2593,88.5
153.3041,303.8
153.3316,335.9
153.3334,91.7
153.3453,986.2
153.4099,117.7
153.4422,668.6
153.4647,583.3
153.4683,18.4
153.4877,743.4
153.5327,72.5
153.5451,225
153.6184,612.8
153.6319,92.6
153.6522,187.1
153.6598,17.7
153.6638,361.7
153.6696,275.5
153.7245,81.6
153.7481,404
153.7652,383.4
153.7721,76.2
153.8198,19.3
153.8373,115.5
153.8824,283.7
154.0031,340.1
154.0111,259.1
154.0177,297.9
154.0204,368.9
154.0265,681.2
154.0388,171.6
154.0586,556
154.1725,90.3
154.2059,331
154.2191,161.2
154.3474,20.2
154.3578,135.2
154.3933,85.8
154.4156,654.8
154.4182,143.5
154.444,18.2
154.4479,360.9
154.4529,255
154.4597,115.8
154.4753,112.2
154.5026,142.8
154.536,99.2
154.5433,323.9
154.5553,182
154.5596,181.4
154.6088,618.8
154.6247,360.2
154.6313,221
154.7206,190.1
154.7224,379
154.8496,17.5
154.8562,20.3
154.8654,154.4
154.8689,163.3
154.9074,39.4
154.9238,135.7
154.9413,774.4
154.9434,238.7
154.9589,311
154.9691,483.6
155.0004,42.8
155.0539,2801.8
155.0986,472.6
155.102,826.4
155.1068,284.2
155.131,360.7
155.2024,572
155.2393,21.1
155.3353,429.8
155.4504,492
155.4685,139.8
155.4844,484.7
155.4898,627.2
155.526,17.4
155.6038,83.1
155.6162,74.8
155.6168,75.2
155.6523,431.4
155.6542,131.6
155.6628,86.1
155.673,112.5
155.6983,294.1
155.715,376.8
155.7291,220.3
155.7519,83.7
155.7578,114.2
155.7637,93
155.7743,248
155.7945,169.7
155.7991,310.8
155.8356,202.5
155.8415,94.4
156.0032,249.5
156.0421,5929.4
156.0573,57.5
156.063,141.8
156.0767,64088.6
156.1145,948.8
156.1929,103.5
156.2249,153.4
156.2393,208.2
156.2553,119.7
156.3623,171.9
156.3736,421.7
156.3797,77.6
156.3973,137.1
156.429,114.1
156.4372,826.9
156.4445,161.1
156.4911,108.2
156.6662,230.8
156.7247,516.1
156.8187,91.8
156.9172,19.5
156.9469,357.8
156.9855,260.9
157.0059,103.8
157.0154,149.1
157.0294,503.4
157.0438,117.4
157.0802,144
157.0971,72.9
157.116,793.3
157.1836,97.2
157.2917,773.4
157.3471,309.4
157.3892,203.7
157.4294,19
157.447,621.9
157.5203,82.7
157.5374,739.4
157.5915,94.2
157.6173,112.1
157.626,269.1
157.639,149.4
157.7544,788.6
157.7576,148.8
157.7602,107.3
157.7663,177.6
157.784,405.2
157.8331,92.9
157.8803,105.3
157.9259,204.8
157.9766,146.4
157.9938,435.9
158.0006,336.5
158.0133,789.7
158.0271,3982.2
158.0738,528.6
158.1016,301.9
158.1191,20.6
158.2483,17.1
158.2608,114.3
158.2673,393
158.2735,213
158.2885,338.9
158.3212,87.3
158.4266,94.8
158.4351,156.5
158.4442,164.9
158.4531,198.1
158.4877,96.1
158.4964,727.9
158.5167,115.3
158.5285,323.8
158.6143,73.6
158.666,175.5
158.6964,235.4
158.7135,91.1
158.7646,92.4
158.798,180
158.9118,310.7
158.9162,183.5
158.9407,123.8
158.9641,5784.6
158.973,853.1
158.9965,6009.9
159.0111,25.1
159.0303,144.4
159.0422,543.5
159.0532,327.2
159.2115,547.8
159.3646,191.3
159.4222,349.1
159.4463,77.2
159.4591,390
159.4996,300.7
159.5025,142.5
159.5143,82.5
159.5433,85.2
159.6031,341.5
159.6419,146.5
159.7207,137.2
159.7592,389.3
159.7918,245.4
159.7951,335.3
159.8126,326.8
159.8314,358.7
159.9269,96.7
159.9511,233.8
160.0344,10057.2
160.0604,72698.3
160.0757,18.1
160.0783,329.7
160.0812,206.4
160.1146,87.4
160.1497,438.9
160.2158,363.6
160.2596,20.2
160.3029,370.6
160.3105,332.7
160.3165,383
160.3223,134.2
160.3401,221.7
160.39,784.5
160.421,297.9
160.4555,218.7
160.4759,355.2
160.5703,216.1
160.6255,353.1
160.6491,19.2
160.6948,1003.2
160.7268,410.6
160.7305,364
160.7521,438.2
160.7545,291.4
160.7837,188.2
160.7988,690.7
160.8442,719.8
160.8846,219.9
160.8888,755.1
160.9112,857.2
160.9195,334.3
160.9249,333.9
160.9923,182.8
161.0076,357.9
161.037,121.6
161.0638,1727.5
161.1064,509.3
161.1227,99.5
161.1281,356
161.1802,77.5
161.1936,191.8
161.2447,729.2
161.2492,20
161.2693,90.8
161.3151,249.3
161.3299,720.5
161.3728,809.5
161.4751,75.9
161.5513,288.2
161.5602,82.4
161.5793,566.5
161.5931,892
161.6244,425.8
161.6363,78.5
161.6457,200.2
161.6766,507.6
161.7113,499.8
161.7267,880.7
161.7391,96
161.7775,483
161.8118,244.7
161.8615,456.7
161.8872,118.6
161.9028,499.7
161.9272,87.3
161.9698,143.1
161.9745,420.7
161.9802,602.1
162.0014,317.5
162.0069,202.8
162.0429,333.8
162.0502,11188.9
162.0776,18.2
162.0901,444.7
162.0913,442.5
162.1126,890.3
162.2321,68.9
162.2473,83.2
162.2616,116
162.2656,22
162.2942,281.3
162.3419,764.1
162.3881,145.2
162.4022,19.2
162.425,845.8
162.4335,429.9
162.481,718
162.5322,178
162.5383,88.6
162.6457,298.2
162.6959,215
162.7111,76.8
162.7315,20.2
162.7619,166.1
162.8728,91.2
162.8775,95
162.9557,6705.9
162.9866,735.1
163.0155,1414.3
163.0205,111.9
163.0765,20.4
163.1161,200.5
163.1353,292.2
163.1483,25.9
163.2477,80.6
163.2765,127.1
163.3001,447.1
163.3751,584.7
163.4614,328.4
163.4982,18.4
163.5123,376
163.5356,146.7
163.6437,209.1
163.6592,244.6
163.663,611
163.6726,97.5
163.6753,271.5
163.7233,273.2
163.7644,982.9
163.7908,109.7
163.7925,133.8
163.8258,280.7
163.9308,97.6
163.9518,17.4
164.0182,280.7
164.0294,7294
164.0575,19
164.066,123.3
164.2603,842.1
164.263,19
164.2736,184.6
164.3316,351.7
164.4594,177.9
164.5046,269.9
164.5199,130.5
164.5402,195.6
164.564,78.5
164.6279,137.4
164.6789,148.4
164.6938,86
164.7051,692.5
164.7413,102.9
164.7544,422.3
164.9205,4084.8
164.93,12144.5
164.935,1703.4
164.9409,88.6
164.9644,817
164.9791,20
164.9845,70.3
164.9925,1188.2
164.9962,22.6
164.9997,456.8
165.091,84.3
165.0989,115
165.2484,97.9
165.2682,221.3
165.2699,590.8
165.2858,270.4
165.3021,124.5
165.5088,366
165.5139,20.1
165.5296,85.7
165.5502,239.9
165.5586,179.7
165.598,726.5
165.7048,331.8
165.7196,151.7
165.8749,406.9
165.9573,119.4
165.967,592.4
165.9787,1846.9
165.9877,1658.5
165.995,1238.4
166.0597,20.9
166.0839,7284.9
166.0949,118
166.1077,433
166.4113,142.3
166.4138,286.1
166.4188,99.8
166.5189,74.2
166.5799,813.9
166.64,507.7
166.6708,356.5
166.7871,133.1
166.8443,18.2
166.9507,24398.7
166.979,29.2
167.0002,27.6
167.0118,610
167.0217,7079.6
167.0855,274.4
167.0861,286.8
167.4868,209
167.5739,85.7
167.596,925.9
167.5979,343
167.6536,293.9
167.7291,885.8
167.74,569.4
167.7519,525.7
167.7892,85.7
167.8409,95.5
167.8523,344.4
167.8557,651.6
167.9091,349.4
167.9366,87.9
167.9596,555.1
167.974,93.5
167.9818,18.4
167.9945,3827.8
168.0053,542
168.0282,170.5
168.0761,172.8
168.2227,16.3
168.2543,114.2
168.3127,110.7
168.345,590.1
168.3649,351.2
168.3881,524.9
168.4823,110.6
168.4908,306.4
168.634,428.3
168.6424,84.8
168.6673,107.7
168.6705,182
168.6877,138.5
168.7388,181.9
168.8016,84.3
168.8174,105
168.9252,43.4
168.9373,81.3
168.9489,2141.9
169.0454,631.7
169.0584,52503.9
169.0949,133.9
169.1023,854.8
169.1606,339.5
169.2244,143.9
169.2289,568.1
169.3132,168.3
169.3915,403
169.4006,437.5
169.4913,160.6
169.503,313.8
169.603,681.7
169.6244,618.1
169.6517,18.4
169.79,236.3
169.8593,388.2
169.9425,81.8
169.9752,615.2
169.9861,1012
169.9928,224.1
170.0044,297.9
170.0925,26185.2
170.1292,299.3
170.1337,335.8
170.1838,298.6
170.187,80.7
170.257,466.9
170.3626,112.6
170.3728,192.9
170.3892,109.1
170.4142,137.7
170.445,93.1
170.4935,122.8
170.5501,127.4
170.5701,801.5
170.6238,201.1
170.6268,81.3
170.6712,137.3
170.8007,184
170.8092,113.6
170.8231,81.3
170.8543,3576.3
170.9141,127.9
170.9257,132
170.9499,561.7
170.9529,18.9
170.9628,415.1
170.9982,18.4
171.008,159.3
171.0167,568.7
171.0214,89.4
171.0245,19.1
171.0279,167.6
171.0672,295.1
171.0862,170.5
171.096,174.4
171.1716,97.5
171.2156,82.1
171.2451,19.5
171.3014,239.1
171.3213,153
171.3345,1090.8
171.4747,212.2
171.4768,360.3
171.5143,211.7
171.5281,213.5
171.5603,367
171.5623,329.7
171.5977,115.2
171.6422,84.2
171.675,139.5
171.6783,81.2
171.6927,800.5
171.7062,22.1
171.738,287.6
171.8755,90.1
171.8998,16.6
171.9053,111.2
171.9231,85.4
171.9369,103.7
171.9551,191.6
171.9913,654.1
171.9939,990.9
172.028,504.3
172.1038,96
172.1638,275.5
172.168,284.4
172.1796,847.3
172.1934,75.4
172.1964,377.6
172.2567,221.2
172.3255,753.6
172.3728,375.1
172.3758,94.2
172.4146,782.7
172.4281,97.4
172.4801,101
172.5073,85.4
172.5239,435.8
172.5779,102
172.5791,109.6
172.5798,110
172.5939,459.5
172.6544,266.6
172.7472,142.7
172.7787,84.9
172.8154,92.5
172.8192,388.8
172.8514,1697.1
172.9482,89.5
172.9674,946.6
172.9997,319.5
173.0268,340.8
173.0299,730.4
173.0965,491.5
173.2036,326.7
173.2771,86.2
173.2994,554.5
173.3564,87.7
173.3619,90.3
173.3798,80
173.3912,386.2
173.4022,23
173.4668,651.2
173.4695,157.4
173.5229,186.2
173.5496,20.2
173.5527,158.6
173.5604,124.4
173.6234,147.1
173.6485,647
173.6812,18.4
173.7535,593.4
173.7571,1133.4
173.8259,436.3
173.8322,369.7
173.8698,34.1
173.8804,348.1
173.9852,23.3
174.0008,31.1
174.0138,329.2
174.0258,523.3
174.0508,287.6
174.0603,466
174.0749,378.1
174.1125,116.7
174.1208,597.8
174.2178,192.8
174.2471,435.2
174.2996,112.7
174.3465,24.4
174.4086,87.7
174.415,789.6
174.4751,269.1
174.5743,119
174.7108,341.7
174.714,72.8
174.7549,779.8
174.8132,555.3
174.8856,397.9
174.9002,129.3
174.9325,136
174.9382,3190.7
174.9429,765.8
174.9648,83.6
174.9848,800.3
175.0015,498.5
175.0136,16.6
175.0342,4027.5
175.0455,3177
175.0576,2127.8
175.0817,24.1
175.119,98462.1
175.4615,137.6
175.6946,265.8
175.7668,233.7
175.8328,182.4
175.8349,943.4
175.8798,272.5
175.9272,925.5
175.9974,785.2
176.0005,65.9
176.0085,3699.9
176.0658,17926.3
176.103,1116.7
176.1226,1499
176.1547,219.9
176.2359,155.4
176.2486,630.2
176.2942,148
176.3171,104.9
176.3951,151.8
176.4015,131.8
176.4451,113.3
176.5359,326.8
176.5712,89.5
176.6073,124.8
176.6291,200
176.6362,148.8
176.7263,213.1
176.7673,108.2
176.7779,428.4
176.8084,202
176.8601,306.5
176.8898,82.3
176.8938,27.2
176.9061,446.8
176.9294,20.6
176.9492,359.6
176.9925,1556.5
177.0023,418.9
177.0072,47
177.0247,2252.3
177.059,728.7
177.0611,3777.5
177.0749,201
177.0868,756.2
177.1129,96.3
177.1294,392.9
177.1742,183.4
177.1887,414.4
177.2452,71.1
177.2753,169.3
177.3758,20.7
177.3893,441.5
177.4494,724.8
177.5019,381.1
177.5824,384.3
177.8085,273.6
177.8616,134.3
177.9712,138.4
177.9949,29.7
178.0087,12992
178.0162,60
178.0241,7749.8
178.0526,152.1
178.0587,6908.5
178.1137,591.2
178.2164,420.6
178.4126,229.2
178.5151,769.2
178.5493,96.3
178.572,79.2
178.5782,19.9
178.6936,107.4
178.7095,182.3
178.7716,96.2
178.8557,685.3
178.8942,298.6
178.9179,489.9
178.922,67.5
178.9643,184.3
179.0028,97.8
179.0117,335.1
179.0244,282.5
179.0617,461.5
179.105,265.7
179.1619,18.4
179.1723,194
179.1809,134
179.2847,83
179.4778,323.5
179.4933,26.2
179.5296,420.9
179.6001,265.5
179.605,98.6
179.6328,398.3
179.7168,170.5
179.7392,604.8
179.8637,111.2
179.8757,255.5
179.9531,22.3
179.9861,290
180.0034,5543.7
180.0065,415.9
180.0105,175.8
180.0203,294.6
180.0458,73.7
180.0633,94.6
180.1056,963.1
180.2308,776.7
180.2436,924.1
180.3131,739.8
180.3862,568.1
180.4355,19.6
180.4514,18.8
180.4786,601.5
180.489,77.7
180.4979,270.1
180.5237,422.6
180.5326,122
180.5349,898.5
180.5426,432
180.551,212.4
180.5664,141.8
180.6383,370.5
180.7607,99.5
180.7979,204.1
180.8306,777.7
180.8882,453.2
180.8907,262.3
180.8945,2506.2
180.904,5406.1
180.9316,596.8
180.9575,1303.4
180.9641,329.4
180.9985,636.2
181.016,36.9
181.0261,1105.8
181.0603,593.9
181.0649,6616.1
181.0966,580.9
181.1156,115.7
181.1268,103.6
181.1298,517.2
181.2248,375.9
181.3405,256.1
181.3798,169.7
181.4318,91
181.4461,17.3
181.4732,267.3
181.6318,561.1
181.6411,134.1
181.6554,173
181.7089,124
181.7118,81.6
181.7338,23.9
181.8067,714.2
181.8886,18.9
181.9043,281.3
181.9343,171.2
181.9469,19.6
181.9615,556.8
181.9721,156.3
182.0037,771.7
182.011,43.2
182.0126,79.2
182.0425,32971.4
182.0577,2833.2
182.079,1181
182.1851,749.4
182.1935,189
182.1969,99.3
182.2477,148.7
182.4726,94.4
182.5165,727.3
182.5588,284.9
182.5868,167.8
182.6763,88.3
182.7132,192.1
182.748,1005.1
182.7596,119.8
182.8742,624.1
182.9119,269.5
183.0261,195.9
183.0444,466.3
183.0803,603.9
183.1506,129.2
183.196,103.9
183.212,179.4
183.2592,325.8
183.4008,25
183.4338,105.9
183.4929,84.6
183.6376,119.2
183.6399,747.9
183.6429,711
183.6706,77.7
183.6934,21.6
183.7047,884
183.8004,195.7
183.8087,101
183.817,88
183.9647,2620.7
183.9824,706.5
184.0066,19.7
184.0372,419.1
184.0734,4172241.5
184.1036,126
184.1114,186.4
184.1822,1281
184.3048,156.1
184.3385,192.5
184.4022,99.1
184.5064,70.1
184.555,401
184.5629,345.3
184.6319,939
184.6412,530.7
184.6448,16.5
184.6726,271.2
184.6839,156.6
184.7403,260.6
184.743,319.8
184.7638,19.5
184.768,174.6
184.7948,253.7
184.9298,112.4
184.9837,765.5
185.026,95.3
185.0324,76675.5
185.0702,8234.7
185.0767,185420.4
185.1033,440.3
185.1284,23.9
185.1418,948
185.1808,229.4
185.1929,96
185.3161,309.3
185.3333,402.2
185.3486,155.3
185.432,179.2
185.5447,84
185.557,150.9
185.5936,19.7
185.6171,894.1
185.6185,854.5
185.6505,294.7
185.7109,323.1
185.7148,84.5
185.7289,18
185.7579,21.1
185.7719,472.4
185.8041,162.7
185.9448,154.4
185.9507,394.2
185.9878,19.3
186.0199,119
186.032,167.9
186.0357,455.7
186.0741,552.8
186.0777,24245
186.1158,529.3
186.1762,697.5
186.3825,297.9
186.4449,182.5
186.6251,17.9
186.667,139.3
186.7252,485.6
186.7758,183.4
186.8283,296.8
186.8361,208.7
186.8983,24.1
186.9047,81.7
186.921,98.7
186.9938,568.9
187.0305,3398.6
187.0353,385.3
187.053,321.1
187.0578,1118.3
187.0647,137.9
187.0716,483.7
187.0856,76.8
187.1078,4773.4
187.1191,118
187.1319,185.3
187.1595,111.7
187.1856,102.4
187.2467,313.2
187.2616,73
187.2679,390.9
187.286,1021.3
187.4184,646
187.4567,128.9
187.6135,20.6
187.6604,388.1
187.7073,377.5
187.7607,547.2
187.7648,464.1
187.8013,156.7
187.82,213.7
187.8942,197.6
187.9538,299.9
187.964,91.9
187.9767,356.8
187.9868,497.9
187.9959,608
188.0707,885
188.2205,599.2
188.2802,118.1
188.2858,554.2
188.3577,331.6
188.4292,138.3
188.4572,161.1
188.5466,391.2
188.6901,21.5
188.7409,127.3
188.8527,401.9
188.9034,107.6
188.9393,19.6
188.9461,95.1
188.9579,81.1
188.9618,408.6
188.9961,106.3
189.0039,1349.7
189.0212,43.5
189.0373,488.7
189.0611,3707.7
189.0871,7826.4
189.2308,137.8
189.2684,298.2
189.311,498.7
189.3159,444.4
189.4009,17.5
189.5442,766.8
189.5575,131.1
189.6258,564.7
189.6981,237.2
189.7055,221.6
189.8493,313.2
189.8542,609
189.8628,510.1
189.9051,373.9
190.0139,176.8
190.0524,159.6
190.1817,253.3
190.327,422.3
190.4444,283
190.462,885.9
190.5088,17.6
190.5323,716.2
190.569,100.4
190.6409,96.8
190.6749,321
190.7004,156.4
190.8149,297.3
190.8277,546.9
190.8401,82.6
190.8659,79.5
190.8727,613.6
190.8897,835.2
190.9123,875.4
190.9392,238.8
190.9411,218.9
190.957,382.5
190.9766,521.3
191.0003,40.6
191.0081,2957.8
191.0133,117.9
191.0317,1758.4
191.0404,65739.3
191.0549,230.2
191.0769,11990.5
191.1125,182.7
191.1456,24
191.1713,273.4
191.1954,158.8
191.207,379.8
191.2153,237.6
191.2512,422.4
191.3262,802.6
191.3746,171.8
191.4012,941.2
191.4381,18
191.4604,160.8
191.5291,249.7
191.5506,109.7
191.6424,299.9
191.6578,216.6
191.6791,198.2
191.7016,138.9
191.7533,580.7
191.7635,261.1
191.801,303.5
191.8401,166.2
191.879,291.1
191.9826,1143.7
192.0112,47.6
192.0334,628.2
192.0398,12539.1
192.0435,1788.9
192.1154,269.2
192.3823,542.6
192.4141,21.8
192.4932,512.2
192.5162,22.8
192.5696,181.8
192.616,238.1
192.6191,759.9
192.6342,589.5
192.6416,379.3
192.6526,125
192.6661,446.8
192.7554,181.9
192.8893,297.1
192.9107,83.2
192.9258,135.7
192.937,21.4
192.9506,708.6
192.9807,406.5
192.9986,2438.8
193.0159,143.4
193.0349,1137.5
193.1328,219.9
193.1374,768.6
193.1462,21.7
193.2185,136.2
193.4018,91.7
193.5106,130.7
193.7741,18.5
193.8505,234
193.9488,18.7
193.9981,2513.1
194.0048,1713
194.01,934.9
194.0328,4087.9
194.0673,363.9
194.1538,27
194.2287,244.2
194.2353,76.1
194.2454,93.5
194.2558,20.7
194.2787,18.8
194.3093,316.9
194.3259,112.9
194.4051,281.2
194.4694,132
194.4782,125.2
194.5076,438.1
194.5596,615.1
194.5617,841.1
194.6188,201
194.6346,82.8
194.7275,823.9
194.743,120
194.8366,96.1
194.8559,143.7
194.8688,283.6
194.9039,214.3
194.9423,184.6
194.968,337.8
195.0029,487.7
195.0115,52.3
195.0306,256.4
195.0824,127.4
195.2425,96.7
195.2632,641
195.3401,277.6
195.3596,106.8
195.4292,18.6
195.4513,17.9
195.5572,85.8
195.6007,770.6
195.6222,593.9
195.7389,496.4
195.7686,93.7
195.7935,768.6
195.8048,215.6
195.8425,242
195.9723,235
195.9819,52.1
196.0282,245.9
196.0525,18.9
196.0727,735.5
196.0792,402.4
196.1038,92.4
196.1632,121.6
196.1697,206.7
196.3528,166.1
196.3638,168.1
196.3731,258.5
196.4137,521.1
196.4187,633.4
196.5964,107.8
196.6611,17.9
196.6792,79.1
196.7092,411.4
196.7303,97.7
196.7513,274.4
196.7663,235.4
196.8653,2956.8
196.8684,1241.4
196.878,1025.9
196.8924,471.3
196.9289,405.5
196.9326,195.4
196.9542,180.8
196.9749,113.5
197.0016,200.6
197.0824,176.6
197.0937,77.5
197.1574,76.2
197.1695,153.2
197.3039,76.8
197.4228,116.7
197.4474,173.9
197.4604,433.7
197.5057,204.7
197.6229,18.4
197.6266,107.1
197.6412,82.2
197.6445,93
197.676,431.4
197.7446,773.1
197.7462,239.7
197.7823,86.2
197.7993,178.9
197.8786,110.9
197.8913,22.7
197.9434,294.7
198.008,19.1
198.0375,202.4
198.0528,3803.8
198.085,8564.5
198.0893,854.7
198.1118,141.9
198.1854,5435.2
198.3367,130.5
198.4502,733.2
198.5316,18.9
198.6078,222
198.6136,635.1
198.6144,589.4
198.6886,314.5
198.7428,17.7
198.7751,81.1
198.7859,91.2
198.8563,16.7
198.8623,3240.6
198.9533,446.4
198.9736,19.1
199.0449,96.8
199.0757,962.7
199.0804,36.7
199.0936,517.6
199.1518,102.7
199.1737,107.7
199.1888,184.5
199.2281,793.9
199.2624,219.3
199.3177,171.1
199.3398,116.6
199.381,131.8
199.4179,110
199.4575,765.6
199.5515,89.6
199.5665,198.1
199.7061,180.8
199.7876,74.9
199.8602,92.8
199.8692,18.2
199.9537,556.8
199.9908,34691.4
200.0009,924.2
200.0374,103.8
200.0408,9209.7
200.0621,18.2
200.0779,814.7
200.0919,170.2
200.0945,338.3
200.109,329.3
200.16,1267.1
200.1891,86.9
200.2097,10918.4
200.3606,526.1
200.409,297.3
200.435,125.5
200.4585,152.5
200.4774,93.9
200.5176,435.3
200.5287,626.9
200.7364,291.1
200.7446,373.2
200.859,535.4
200.8696,719.9
200.8942,332.1
200.897,96.8
200.9102,85
200.9263,84.3
200.9316,134.9
200.9628,97.6
200.9722,187.1
201.0004,171.1
201.0326,139.7
201.0401,317.9
201.0869,45.1
201.097,328.4
201.1641,104.1
201.1738,225
201.2319,108.8
201.3031,90.7
201.3193,159.2
201.3461,355.1
201.3493,283.7
201.3845,22.4
201.3893,369.4
201.4061,77.6
201.4155,93.8
201.5289,88.5
201.5689,359.8
201.6031,328
201.6259,409.5
201.6594,18.2
201.6718,19.1
201.6823,111.9
201.7317,421.2
201.8434,922.5
201.8648,143.1
201.885,544.8
201.8948,25.3
201.9047,177.7
201.941,136.3
201.9958,115.3
202.0012,626.2
202.0162,76.6
202.0199,163.3
202.1256,91.9
202.1481,17
202.2026,152.8
202.2189,318.8
202.2992,74.9
202.3228,834.4
202.4102,93
202.4337,21.1
202.4574,130.9
202.4791,807.1
202.563,20226.2
202.6991,433.6
202.7415,593.8
202.7684,248.3
202.8948,25.9
202.9462,217
202.9717,595.9
202.9956,21.9
202.9991,18.5
203.032,3138.8
203.0352,203.6
203.0527,836321.7
203.0769,11524.7
203.1298,144.8
203.1804,116
203.1948,340.4
203.2092,395.4
203.2323,106.2
203.3286,322.7
203.4707,346.3
203.492,376.7
203.5058,599.9
203.5162,278.3
203.5535,609.5
203.6186,383
203.6407,123.3
203.707,510
203.7964,18.3
203.8416,557.8
203.866,794.4
203.911,736.2
203.9346,366.9
203.9571,189
203.9667,722.4
204.0244,54816.8
204.0334,491.3
204.0468,17.6
204.0561,42921.9
204.0626,508.8
204.0869,1076
204.1437,331.3
204.1938,817.2
204.3071,173.4
204.3452,141.5
204.3747,174.2
204.4547,107.8
204.5234,423.6
204.5356,334.4
204.5423,204
204.6396,688.8
204.6514,302.5
204.7157,215.1
204.7325,81.4
204.742,201.1
204.8887,94.1
204.9229,472.2
204.9411,472.5
205.0162,28.2
205.0277,517.2
205.0338,388.6
205.057,2202.3
205.0602,138.1
205.0684,2604.6
205.0837,40.1
205.1187,109.8
205.1335,382.6
205.1424,140.4
205.1497,339.2
205.1753,125.7
205.2069,130.2
205.2491,749.2
205.2692,244.2
205.303,84.6
205.4317,129.8
205.466,315.6
205.6177,142.2
205.6902,140.8
205.7178,118.5
205.8351,196.5
205.9414,370.3
205.995,93.5
206.0246,770.9
206.0476,132.6
206.0554,986
206.1705,159.8
206.2697,806
206.2734,98.5
206.3557,198.4
206.3836,173.4
206.396,476.8
206.4228,450.8
206.5063,18.3
206.5681,329.9
206.5786,403.2
206.6788,18.1
206.6918,136.7
206.7362,951.7
206.7843,128.2
206.8227,258.8
206.8267,122.8
206.8878,136
206.894,9645.2
206.9168,271.1
206.9822,3182.3
206.9978,179.2
207.0144,58440.9
207.0238,462.6
207.0314,25.6
207.0444,1574.3
207.0507,7700.2
207.0621,111.3
207.073,663.1
207.2098,16.4
207.2824,192.6
207.3259,173.9
207.4644,129.9
207.5051,198
207.5164,179.1
207.5253,107.9
207.5854,829.2
207.6293,654.2
207.6574,17.7
207.6971,256.1
207.7661,395.2
207.8041,118.9
207.8319,380
207.8383,711.4
207.8882,109.9
207.9907,1605.3
208.0137,2792.5
208.0179,1711.5
208.0429,24.8
208.2546,185.9
208.2613,246.3
208.4764,92.1
208.4905,488.8
208.5866,83
208.5976,438.5
208.8394,18.1
208.8642,211.2
208.8685,16
208.8715,16.9
208.8832,1248.5
208.8911,5150.7
208.9354,411.6
208.9443,313.2
208.9615,22.7
208.966,731.4
209.0124,1505
209.0191,351.4
209.0306,514.5
209.1031,20.3
209.1063,140
209.1292,326.4
209.1457,770.4
209.291,138.2
209.2995,334.3
209.3149,409.8
209.3487,99
209.3911,266.6
209.4476,621.8
209.4884,100.7
209.492,901.9
209.6082,73.7
209.8839,17.6
210.4108,20.2
210.6658,18.5
210.6965,645.3
210.7036,138.9
210.8443,114.3
210.8856,308.5
210.9224,153.8
210.9482,84.9
210.953,398.6
210.9658,364.6
211.0459,146.3
211.0536,107.2
211.0567,144.8
211.0693,497.8
211.0826,148.2
211.1628,191.9
211.2389,10475.5
211.2426,19805.7
211.246,27770
211.2486,27777.2
211.2521,19532.1
211.2593,12481.2
211.3907,22.5
211.4148,88.9
211.4765,302.6
211.4941,19.3
211.5742,164.1
211.6561,108.3
211.6625,89.7
211.6758,104.7
211.8679,19.6
211.8732,770.9
211.9374,34.5
211.9464,19.9
211.9668,86
211.9708,18.9
212.0246,126.1
212.0738,318.8
212.198,19.3
212.2013,311.2
212.2113,104.5
212.3595,18.6
212.4269,189.9
212.4743,658.9
212.4955,510.1
212.5604,618.5
212.5814,901.3
212.6415,831.6
212.7092,101.7
212.75,687.2
212.8234,19
212.839,1214.7
212.9417,624.2
213.0322,26.6
213.0548,503.6
213.0636,658.9
213.0748,466.3
213.0912,298.9
213.2401,93.7
213.3286,85
213.3957,741.8
213.4797,88.9
213.4959,154.5
213.5436,18
213.565,425.6
213.6775,340.4
213.774,806.8
213.8136,249.5
213.8882,101.8
213.896,705.2
213.9295,753.2
213.9582,645.6
213.9622,1848.1
213.9847,204.5
214.0043,95.3
214.0128,286.3
214.032,403.2
214.059,17515.7
214.0898,932.2
214.1127,905.8
214.118,106.4
214.1513,857
214.2111,128.4
214.2933,18.9
214.3106,385
214.3623,286.6
214.3666,241.4
214.4729,180.2
214.4806,76.3
214.5099,150.4
214.5184,419.3
214.7049,670.5
214.7167,594.1
214.729,466.9
214.737,151.3
214.8204,344.4
214.8363,1207.3
214.8737,79.6
214.9083,1065.3
214.9176,50.4
214.9248,805.1
214.9655,34.6
215.0327,122.7
215.0478,261.2
215.0618,460.8
215.093,25.8
215.1512,271.4
215.1912,99.5
215.1981,19
215.2311,18.6
215.2652,614
215.286,302.8
215.3642,220.5
215.3711,202.6
215.4219,316.6
215.5618,253.9
215.6085,136.5
215.6226,111.1
215.7466,108.6
215.7917,365.1
215.9195,158.5
215.9578,44.5
215.9645,378.6
216.009,383.7
216.0146,9037.2
216.184,81
216.188,440.4
216.1916,297.5
216.2532,377.6
216.2852,87
216.4196,77
216.4948,74.5
216.4985,126.9
216.5453,144.5
216.6308,214.8
216.6626,177.7
216.6721,810.6
216.6782,185.4
216.855,140.2
216.8777,200.5
216.9073,95.9
216.9228,25744.2
216.9844,19.5
217.0272,311.7
217.1805,210.3
217.2062,547.3
217.2555,827.8
217.2594,298
217.4464,435.4
217.5034,17.9
217.5119,622.3
217.5174,321.5
217.5392,157.1
217.5524,145.2
217.5556,143.5
217.5567,152.1
217.5589,176.6
217.6291,351.1
217.8377,225.9
217.8422,181.9
217.8461,104.1
217.9193,381.3
217.926,18.7
217.9765,227.5
218.0114,28.3
218.0146,24
218.0954,238.4
218.1009,325.8
218.1516,23.2
218.1689,208.9
218.2521,615.6
218.2561,117.5
218.3449,789.9
218.5471,84.1
218.5499,134.1
218.583,171
218.6204,124.2
218.6369,227.2
218.7639,448.7
218.7725,170.6
218.8346,21.6
218.8573,190.7
218.8677,115.4
218.8774,125.4
218.8903,530.4
218.8958,85.7
218.9049,76.3
218.9198,7500.7
218.9779,170.7
218.9806,149.4
219.0131,376.1
219.0176,1306.2
219.0267,1119255.4
219.0505,85.2
219.083,5768.5
219.1387,868.9
219.1519,1469.1
219.1861,19.3
219.3215,91.2
219.3839,21.2
219.4523,742.1
219.8072,435.6
219.8244,173.1
219.8649,112.4
219.8677,598.1
219.9632,195.7
219.9982,542.1
220.0032,84.9
220.03,54561
220.042,27.2
220.0617,120.3
220.0671,2220.2
220.1065,499.4
220.1425,353.9
220.1601,129
220.1673,556
220.4271,19.5
220.5174,24.1
220.672,128
220.7126,627
220.739,180.9
220.7639,340
220.8255,408
220.8568,314.4
220.8763,109
220.9048,20.5
220.933,25.5
220.9725,78.9
221.0054,76.3
221.0097,94.2
221.0248,65600.5
221.031,7663.4
221.0423,1095.5
221.0511,2446.6
221.0844,570.4
221.0874,145.1
221.1313,225.8
221.1456,77.4
221.2641,110.5
221.5019,182.1
221.5281,87.7
221.5342,105.2
221.5839,446.6
221.7052,937.2
221.7574,317.6
221.8372,271
221.8702,209.4
221.8788,120.2
221.902,29.6
221.9168,87.2
221.9562,131.7
222.0018,137.6
222.0281,1931.4
222.0571,84.6
222.1241,94.9
222.1757,624.7
222.209,792.4
222.2244,204.5
222.251,714.2
222.2525,627.8
222.254,362.7
222.3209,200
222.5125,499.5
222.5929,20.9
222.6286,19.3
222.7766,235.3
222.8225,156.8
222.8679,8181.9
222.8794,1030
222.8988,514.7
222.9115,121.1
222.9216,96.1
222.9365,238.9
222.954,1354.2
222.9884,5334.4
223.0249,547
223.0321,97.8
223.0391,312.9
223.0638,21.7
223.0686,165.4
223.0815,26.5
223.1312,76.6
223.145,179.6
223.273,756.5
223.3567,245.3
223.448,232.5
223.4986,710.2
223.5117,102.4
223.5705,493.4
223.6666,151.1
223.7265,80.9
223.7624,23.1
223.806,95.4
223.8383,696.8
223.8545,19.7
223.9342,191.1
223.9531,28.3
223.9764,132.2
224.0073,101.4
224.0298,785.7
224.0808,79.9
224.0853,108.2
224.2749,533.3
224.4733,215.3
224.6276,88.6
224.6799,144.1
224.7651,562.1
224.854,103.3
224.865,5252.6
224.9276,89.9
224.9575,97.4
224.9795,99.8
224.9866,508.3
225.0236,87.7
225.0452,151.2
225.0548,27882.8
225.078,215.5
225.0842,364.5
225.2209,90.6
225.2416,292.8
225.2661,199.4
225.3721,120.2
225.3777,134.6
225.4373,20.6
225.4494,666.1
225.5795,18.9
225.5831,437.9
225.5939,91
225.6446,180.8
225.7687,19.8
225.7849,180.1
225.7953,17.3
225.8342,131.7
225.8431,98.2
225.9219,471.7
225.9621,34.7
225.9905,537.7
226.0021,67.8
226.0065,1818.3
226.0207,99.4
226.0242,5257.6
226.0452,4180.5
226.1027,93.2
226.109,324.3
226.1374,816.3
226.3204,86.4
226.4651,331.7
226.6185,136.8
226.6538,348.8
226.8298,419
226.8355,77
226.8613,570.9
226.8895,118.2
226.8934,28.3
226.9112,195.3
226.9517,19310.3
226.9658,19.2
226.9778,381.6
227.0342,298.2
227.0434,275.9
227.0544,620.4
227.0792,1096.6
227.0865,29.8
227.2045,401.9
227.2098,823.8
227.2267,330.4
227.2368,156.9
227.2547,308.6
227.2776,98
227.4929,615.1
227.5102,77.5
227.5655,165.6
227.5774,84.8
227.5859,570.9
227.7408,183.3
227.8441,242.2
227.9289,414.6
227.9618,265.8
228.0002,998.9
228.022,771.2
228.0563,781.2
228.0657,18.9
228.1576,96.6
228.182,258.7
228.1926,908.3
228.4664,280.4
228.5087,274.2
228.6614,591.8
228.701,129.2
228.718,146.9
228.7331,238.5
228.8131,436.9
228.881,308.3
228.9515,126.7
228.9601,61.3
229.0491,509
229.0904,20.2
229.1379,609
229.2173,305.1
229.3138,916.5
229.3518,276.8
229.4499,1015.9
229.4802,426.7
229.4877,657.6
229.5372,126.7
229.7015,973.6
229.7205,1076.2
229.8461,19.6
229.9127,56.8
229.9571,5903.5
230.0301,1056.6
230.0334,117.8
230.1817,496.5
230.2644,907.2
230.2806,614.7
230.3076,345.9
230.3367,19
230.3407,473
230.4478,159
230.5654,155.3
230.7488,303.6
230.7774,752.1
230.8106,401.8
230.8192,691.1
230.8902,437.3
230.9088,132.6
230.9537,19.9
230.9603,263
230.9902,20.8
231.0554,80.6
231.0841,21058.2
231.2237,128.2
231.2398,18.6
231.3265,127
231.3844,216.5
231.4729,99.2
231.5351,518.8
231.5849,140.9
231.6509,81.9
231.7105,191.9
231.7302,109.9
231.8348,556.6
231.9058,340.7
231.9529,149.3
231.9576,148.5
231.9651,18.1
231.9728,174.6
231.9884,613
231.9964,163.4
232.0534,181.9
232.1032,392.7
232.1065,76.3
232.1583,120.3
232.176,94.2
232.3701,120.4
232.4529,882.2
232.6041,121.5
232.6241,131.6
232.6919,250.4
232.7704,86.2
232.8831,24.9
232.8967,26644.6
232.9615,19.9
232.9958,76.8
233.0367,170.5
233.0511,8956.6
233.0588,18.8
233.0637,976.9
233.2262,22
233.2736,401.3
233.4182,702.7
233.4492,101.1
233.4582,19.5
233.5547,534.7
233.6426,87
233.68,146.9
233.686,73.5
233.7211,177.9
233.7291,322.8
233.8125,18.4
233.8904,107.8
233.9531,21.8
233.978,73.9
233.9897,375.7
234.0248,328.2
234.2975,404.6
234.3323,119.3
234.3376,461.8
234.3902,98.9
234.4099,426.5
234.4245,24.9
234.4809,18.5
234.4912,501.3
234.4945,874.4
234.5064,154.9
234.5985,241.6
234.6395,84.1
234.7282,17.7
234.7612,224.8
234.8078,127.1
234.824,24.7
234.8937,5234
234.927,342.7
234.9561,123.8
234.9815,4578.4
235.0567,589.3
235.0666,1265.3
235.0927,4377.1
235.1048,80.2
235.1184,145.8
235.142,18.6
235.2878,74.2
235.4448,975.7
235.487,216.3
235.5643,96.2
235.6436,19.9
235.7055,93.7
235.771,78.7
235.9249,109.6
235.9411,381.5
236.0221,539.7
236.031,544.1
236.0344,103.9
236.041,4029.1
236.0718,42622.9
236.1116,726.3
236.1747,289.7
236.1837,245.2
236.2915,165.8
236.3361,131.4
236.3719,398.6
236.4172,18.6
236.4544,181.2
236.4561,197.5
236.4799,189.1
236.5104,333.6
236.5719,415.4
236.5807,18.1
236.639,482.1
236.743,533.3
236.7674,212.9
236.8003,483.7
236.8031,255.1
236.8141,222.7
236.8781,170.6
236.885,19.2
236.907,22.6
236.9146,24.4
236.9541,17.4
236.993,250.7
237.0003,934.1
237.0712,104.3
237.0751,1785.1
237.0799,21.1
237.1274,178
237.155,18
237.1668,317
237.2912,445.2
237.3578,108.9
237.3805,130.8
237.4336,195.7
237.4773,23.5
237.5287,1024.8
237.557,295.5
237.5876,860.2
237.5966,159.1
237.644,20.8
237.7634,96.4
237.8478,190.8
238.0675,648.7
238.078,21.6
238.1946,251.6
238.2144,123.5
238.2193,136.8
238.2416,232.6
238.3185,131.7
238.3474,322.8
238.505,147
238.5479,937.6
238.5848,134.4
238.6526,375
238.6726,114.9
238.7188,717.6
238.7952,187.4
238.8419,4912.9
238.8529,397.1
238.8571,18.6
238.8623,397.5
238.9067,454.9
238.9431,118.6
238.9535,442.3
238.9857,552.5
239.0091,4740.5
239.0427,154.3
239.0492,890.9
239.0644,1280.3
239.068,757.4
239.0712,24.9
239.1674,314.1
239.2822,259
239.2999,728.3
239.3068,310.9
239.3263,94.4
239.4099,21.4
239.4301,612.3
239.5929,17.6
239.6062,959.2
239.634,20.5
239.6586,94.5
239.7653,538.1
239.9781,22.5
240.0072,518.1
240.0316,22.6
240.053,160.7
240.059,93.1
240.0995,1211.1
240.1136,105.5
240.2313,96.7
240.256,19.2
240.3312,161.1
240.3834,393.6
240.773,192.7
240.8388,995.9
240.914,432.2
240.9726,97.1
241.0253,111.2
241.1014,81.9
241.1166,19.4
241.3222,192.5
241.3253,325
241.3462,210
241.3773,107.6
241.3808,125.6
241.4743,514.6
241.5084,208.4
241.6622,21.1
241.7689,896.7
241.9777,123.5
241.9982,1510.7
242.0191,2595.5
242.0288,206
242.04,80
242.0772,749.4
242.1524,329.5
242.2072,624.3
242.3398,396.7
242.3708,511.6
242.453,151.5
242.4727,173.4
242.4905,147.7
242.5653,687.1
242.7191,232.7
242.73,748.1
242.7452,193.9
242.8976,144.6
242.9145,421.3
242.9256,14606
242.9762,677
243.0065,768.9
243.0364,380.9
243.0414,514.4
243.0533,9840.6
243.0608,22.9
243.0654,9250.8
243.1449,17.5
243.3059,276.5
243.3269,426.3
243.3797,90.6
243.413,251.3
243.4278,536
243.4347,123.9
243.5186,114.9
243.5674,144.7
243.7619,163.5
243.8179,92.9
243.8625,874
243.8941,459.9
243.9202,626.6
243.9326,108.8
243.9728,3354.4
244.0126,253.1
244.1903,92.2
244.2529,639.9
244.2754,394.5
244.4667,322.3
244.4827,579.6
244.5848,557.7
244.7613,548.3
244.814,103.9
244.8709,3976.4
244.8796,154.3
244.9247,19.7
244.9762,112
245.0277,105.7
245.0975,320.5
245.1948,18.6
245.258,628.5
245.3057,413.5
245.3212,20
245.3459,229.8
245.4336,412.8
245.4751,110.9
245.5496,381.5
245.5533,123.1
245.5551,169.2
245.5561,164.8
245.5887,107.9
245.6631,354.8
245.6702,614.7
245.7481,19.8
245.7595,19.2
245.9718,293.5
245.9884,63.9
246.0013,63.5
246.0147,100
246.1634,502.4
246.1645,483.3
246.224,82.6
246.3004,107.9
246.424,500.6
246.4676,203
246.5423,474.2
246.5518,272.4
246.5701,18.8
246.6645,502.3
246.8625,328.7
246.8679,521.3
246.9017,22
246.9517,2049.9
246.9849,227.9
247.001,634.1
247.0367,1223.5
247.0438,148
247.0496,19.5
247.058,20104.4
247.0669,1720.4
247.0715,111.8
247.0927,2810.3
247.1748,894.4
247.2367,164.1
247.3766,439.3
247.4182,394
247.463,753.9
247.5651,146
247.8456,111.9
247.8628,27.7
247.9232,51.4
247.9677,463.7
247.9737,1265.4
247.9775,21.3
247.9831,114.1
248.0613,73.2
248.0963,17.4
248.1243,5768.5
248.2415,208.5
248.2753,109.4
248.2773,122.8
248.3721,154.3
248.3879,23.3
248.4535,19.8
248.4633,87.1
248.4673,121.9
248.5415,199.2
248.7487,295.5
248.7925,975.1
248.8709,7915.6
248.9007,127.2
248.9143,216.6
248.948,60.9
248.9631,546.3
249.0162,1389.9
249.0441,19.2
249.0612,8978.6
249.1083,171.2
249.2157,88.7
249.2639,283.3
249.398,411.5
249.4446,279.6
249.9065,826.8
249.9353,17.5
249.9556,78.8
249.971,593.3
250.0029,19
250.0163,148.8
250.0205,233.2
250.0381,1956.2
250.0515,129.1
250.1263,448.7
250.3674,500.2
250.3872,72.7
250.508,80.7
250.5261,942.9
250.5934,502.1
250.6502,121
250.6978,209.3
250.8221,144.8
250.8678,1077.7
250.8939,134.3
250.9081,447.2
250.9202,1359.9
250.9347,859.1
250.9555,2340.2
250.9772,267.3
250.9893,181.8
251.0343,579.6
251.0712,156.3
251.0866,97.6
251.089,68.9
251.1352,168.6
251.254,201.1
251.5391,987.6
251.5828,142.4
251.6559,77.6
251.7877,18.1
251.9717,360.5
251.9803,330.1
252.0138,845.8
252.0228,97.8
252.0373,52.4
252.0457,88639.1
252.0835,338.5
252.1314,17.9
252.1596,459.6
252.1874,1132.7
252.5197,209.2
252.8066,593.3
252.8139,156.4
252.8861,1019.3
252.9174,1066.8
252.9265,188.2
252.9516,25.8
253.0254,103.8
253.0388,19.7
253.0491,4710.4
253.1161,536
253.2315,167.6
253.3,720.1
253.3109,41.1
253.3566,400.5
253.4049,277.6
253.6217,854.9
253.6723,739.1
253.6824,849
253.8752,172.6
253.9156,261.1
254.0355,665.3
254.0438,1476.1
254.1203,47.7
254.2631,642.2
254.4013,130.5
254.513,98.9
254.8158,1417.3
254.8239,3960.9
254.8298,119.8
254.9861,138.8
255.0256,337.5
255.0331,28303.3
255.0381,1312.8
255.0465,600.5
255.0556,88.8
255.0997,21.3
255.2377,554.4
255.3261,968.4
255.4685,423.1
255.5455,447.7
255.6488,589.4
255.7681,131.5
255.8341,258.7
255.8777,822.5
255.9203,104.7
255.9324,119.2
255.9775,406.7
256.0035,878.5
256.0348,101.4
256.0578,161.6
256.088,115.5
256.2503,326.3
256.3291,754.2
256.3652,110.3
256.3995,219.1
256.4342,236.8
256.5015,82.6
256.5421,463.7
256.5981,473.1
256.6054,470.8
256.6318,685
256.7495,190.5
256.7909,93.7
256.8052,542.2
256.8127,1019.7
256.8209,5088.9
256.918,465.1
256.9812,51
257.0225,90.1
257.044,230
257.0487,6427.3
257.0641,919
257.0673,767
257.0747,46264.7
257.1556,102.1
257.1592,440.3
257.3689,157.7
257.4735,208.5
257.5591,151.3
257.7944,79.5
257.7981,102.4
257.8634,381.4
257.952,306.1
257.9655,634.2
257.9885,117.5
258.0302,823.4
258.06,858.3
258.0779,1118.6
258.1103,20653.3
258.2013,785.9
258.3862,123.2
258.4049,106.7
258.445,340.5
258.517,626
258.818,2402
258.8998,1948.4
258.9899,87
259.0813,248.6
259.1664,20.1
259.2124,17.4
259.2555,143.7
259.2615,168.8
259.3929,286.4
259.4373,358.9
259.4821,524.1
259.5532,219
259.6596,793
259.8138,296.2
259.8628,434.4
259.9127,99.7
259.966,384.1
260.0521,417.6
260.1392,103.9
260.1677,128.2
260.1715,86.1
260.2703,331.7
260.3153,487.7
260.3877,229
260.4241,265.3
260.563,619.7
260.583,646.2
260.5946,253.2
260.7623,411.9
260.8449,2170.1
260.9492,4074.2
261.0326,441.4
261.0457,148.3
261.0505,454.5
261.0655,839.6
261.2875,350.7
261.322,231.6
261.3756,163.3
261.4388,714.6
261.5386,445.1
261.7016,798.9
261.8469,20.6
261.8966,24.4
261.9835,185.8
261.9912,342.9
261.9939,837.5
262.0301,282.2
262.0814,1033.9
262.0901,248.4
262.1723,469.8
262.2322,114.7
262.3501,99.3
262.487,354.8
262.4978,182.8
262.5301,21
262.639,716.5
262.6576,123.6
262.7213,149.4
262.8421,539.4
262.9461,638.9
262.9932,94.1
263.0848,2060.5
263.1131,595.9
263.1373,133
263.1591,329
263.3385,18.6
263.444,227.4
263.5227,344.3
263.5308,352.7
263.574,256.7
263.7485,25.2
263.9234,314.1
263.9517,644.8
263.9949,300.4
264.0441,357.5
264.0564,227.1
264.1341,88.9
264.2326,102.5
264.2687,33
264.2788,145
264.2876,320.5
264.3265,173.1
264.3433,310.3
264.3848,81.4
264.5697,398.8
264.5811,238.8
264.6576,386.5
264.7827,779.4
264.845,1343.5
264.8527,1951.9
264.8731,126.1
264.9028,648.3
264.9334,430.5
264.9512,137.3
264.9885,12666
265.0165,54.5
265.0234,1198.8
265.0352,7028.9
265.0474,3506.1
265.0659,469
265.2427,254.5
265.4155,492.6
265.4255,284.7
265.4493,380.1
265.5333,188.7
265.5548,118.3
265.6164,105.4
265.6909,215.1
265.7549,547.7
265.9577,102.7
265.9784,363.8
265.9897,381.1
266.1164,99.5
266.1687,766
266.2157,839.1
266.2565,204.6
266.3018,97.7
266.54,101
266.5598,505
266.628,112
266.6378,963.7
266.8162,119.3
266.8449,294.1
266.8501,2050.7
266.8647,350.2
266.8941,1416.6
266.959,110
266.9709,167.2
266.9811,23.2
267.191,185.1
267.3263,94.4
267.3302,293.5
267.4065,339.9
267.4336,278.2
267.5349,98.7
267.5537,469.9
267.5866,25.9
267.6471,2206.7
267.6932,490.3
267.7421,169.5
267.7899,184.8
267.9638,19.6
267.9726,328.9
267.994,794
268.0091,108.9
268.0294,648.9
268.1426,96
268.181,315.2
268.3975,105.6
268.6402,126.7
268.7281,19
268.7358,130.1
268.8473,401.3
268.8914,1600.4
268.8998,483.9
268.9594,315.5
269.0314,632.1
269.0332,676.6
269.0449,18999
269.0487,47047.2
269.0756,166.6
269.0837,280.7
269.1069,409.7
269.3464,578.1
269.3903,905.3
269.4851,155.5
269.511,19.1
269.5298,511.7
269.9517,30.6
269.9785,19.3
269.9895,323.5
270.0093,125.3
270.0248,15591.8
270.0474,17175.4
270.115,21.7
270.1335,188.3
270.1448,944.9
270.2242,429.1
270.262,429.4
270.4304,89.5
270.4934,210.8
270.7977,1629.4
270.9597,100
270.978,11656
271.0069,109.4
271.0281,1257.6
271.0504,339.9
271.0644,455.4
271.0775,930.9
271.0905,3076.2
271.1222,217.1
271.1633,164.1
271.2359,17.9
271.2546,468.7
271.2681,23.8
271.4375,426.5
271.4479,101.8
271.4531,20.3
271.6337,413.4
271.6405,267.4
271.661,191.2
271.8222,114.5
271.8292,587.7
271.9674,76.5
272.0205,404.4
272.0433,43.7
272.0805,155.2
272.1728,479.4
272.276,152.1
272.2907,22.5
272.4586,153.3
272.4724,209.2
272.5534,128.4
272.6335,118.1
272.7881,130.5
272.795,3003.3
272.9378,18
273.0225,270.6
273.0434,382
273.0487,2419.2
273.1516,80.3
273.2012,160.2
273.2991,168.4
273.3395,90.5
273.388,165.5
273.5521,410.5
273.6249,139.3
273.6584,553.1
273.7311,112.4
273.8278,714.7
273.9509,21.4
273.9626,12023.6
273.9901,103.1
274.009,97.2
274.0691,50.1
274.078,23.2
274.082,322.6
274.0924,3185.9
274.2105,837
274.3975,194.4
274.5106,129.6
274.5377,421.9
274.5999,348.1
274.6195,488.5
274.6677,469.7
274.7605,379.5
274.769,127.2
274.7918,892.6
274.8021,605.9
274.9426,692.7
274.9553,111.5
274.9635,125.7
274.9826,49.1
275.0694,621.3
275.0751,636.1
275.1806,272.7
275.2224,209.2
275.2696,18.8
275.301,441
275.312,21.2
275.3434,423
275.3698,86.9
275.4022,435.9
275.4176,91.5
275.5315,861.2
275.559,340.2
275.6711,101.8
275.7906,158.8
275.8521,553
276.0031,79.3
276.0955,851.7
276.1501,19
276.4333,229.5
276.5084,93.2
276.5468,151
276.5934,89.8
276.697,175
276.7543,625.1
276.789,304.3
276.8186,19.1
276.8325,425.5
276.9104,27
276.9231,5420
277.0584,283.4
277.0903,469.8
277.1107,133.5
277.1523,156.9
277.1607,89.5
277.1859,103
277.2498,407.9
277.2599,289.6
277.4814,84.4
277.5691,317.1
277.6041,152.2
277.707,348.1
277.7338,21.8
277.744,392.3
277.8206,20
277.8704,90.3
277.9503,644.8
278.0191,317.4
278.0435,86.3
278.1191,90.4
278.147,377.3
278.2408,74.9
278.4871,290.7
278.5379,154.1
278.5843,168.6
278.673,89
278.7371,336.2
278.8279,18
278.8465,38.1
278.8885,55.6
278.9069,510.5
278.9201,618.8
278.9872,2250.9
279.0041,2037.5
279.0225,26.6
279.0567,45478.2
279.1615,494.8
279.2068,298.6
279.4107,144.3
279.421,101.8
279.4983,99.4
279.6527,112.6
279.7531,204.9
279.7768,496.1
279.868,190.4
279.8825,1463.4
279.9669,659.7
280.0121,557.3
280.0157,226.8
280.0294,913.3
280.0598,1184.9
280.0769,303.7
280.0876,901
280.1553,252.9
280.186,846
280.379,460.2
280.4695,202.2
280.4785,305.5
280.5152,460.9
280.6362,128.9
280.693,182.4
280.722,836.8
280.8269,1974
280.8823,92.3
280.9544,83.6
281.009,512.8
281.0514,252.7
281.0601,19.7
281.1143,80.4
281.1511,126.3
281.3058,428.1
281.6308,481.5
281.6342,484.9
281.6453,565.3
281.6862,99.6
281.8084,92.1
281.8843,918.8
282.0146,25.2
282.0647,363.1
282.086,403.1
282.1399,304
282.1516,153.1
282.2991,94.1
282.3665,321.8
282.5158,134.6
282.5327,207.8
282.5737,859.9
282.6012,904.3
282.6137,148.7
282.7943,498.3
282.8238,2615.2
282.869,374.1
282.9846,134
283.0585,344.6
283.0674,18.6
283.0883,172
283.0924,160.5
283.1556,622.3
283.3033,130.5
283.3257,524.9
283.3711,21.3
283.4148,183.5
283.4497,608.5
283.4672,181.4
283.4754,573.9
283.6369,405.8
283.6963,491.8
283.7934,93.6
283.9522,308.5
283.9654,96.2
283.9752,87.9
283.9887,27.5
283.9929,226.5
284.0037,67
284.0244,124.2
284.0536,21.8
284.0631,172.2
284.168,605.5
284.2846,206.6
284.4067,461.8
284.5414,18.2
284.5647,765.2
284.9464,316.2
284.9654,308.3
284.9934,747.7
285.0224,988
285.0392,310.1
285.0999,545.3
285.1666,306.8
285.2895,507.5
285.3957,96.2
285.4808,20.4
285.7043,372.6
285.737,148.1
285.7734,82.9
285.8804,647.4
285.99,222.4
286.0198,3663.9
286.0446,252.4
286.0649,93.1
286.096,95.1
286.1179,171.2
286.4262,23.7
286.5971,93.7
286.6332,103.6
286.7716,630.2
286.8294,958.4
286.9205,149.5
286.952,5542.3
287.0177,87.2
287.023,356.7
287.0554,35076.5
287.1151,662.1
287.257,383.4
287.3057,17.9
287.367,19.9
287.396,297.9
287.7108,164.4
287.7384,355.2
287.9073,74.3
287.9186,310.3
287.9493,26.7
287.996,473
288.0159,88.7
288.0353,139
288.0588,757.4
288.0848,50.4
288.1557,31357.8
288.3609,86.2
288.4758,83.2
288.5133,175
288.5418,1092
288.6217,676
288.717,98
288.7532,958.2
288.7688,2543.3
288.7849,358.5
288.8744,98.9
288.9013,205
288.9038,158.4
288.9099,310.9
288.9214,2432.4
288.928,2008.8
288.9389,4434.7
288.9471,6399
288.9577,8324.9
288.9611,8117.8
288.9626,8341.2
288.9682,15530.4
288.9755,20357.7
288.9833,21677.7
288.988,21525.9
288.9957,19526
289.0086,16039.1
289.0129,17742.8
289.0217,16805.8
289.0287,13501
289.0387,8342.1
289.0485,1895.5
289.0552,24.2
289.0682,402.7
289.1059,710.7
289.1591,2917.5
289.2174,21.6
289.2263,311.1
289.4384,334.6
289.5174,167.2
289.6506,542.1
289.6792,182.4
289.8477,459.4
289.9177,827.2
289.9367,2418.4
289.9793,21.6
290.2463,719.1
290.2534,562.1
290.315,20.8
290.5747,75.7
290.6082,334.7
290.6788,529.6
290.7661,363.1
290.7798,748.9
290.789,86.1
290.9271,19.7
291.0269,5202.3
291.0613,585.5
291.1761,155.3
291.3009,130.9
291.3741,136.6
291.401,446.9
291.4785,93
291.5844,137.3
291.7724,778.3
291.821,659.5
291.8979,118
291.9076,302.7
291.9727,355.9
292.0439,728.3
292.0505,329.4
292.0798,58.3
292.1023,418
292.2688,99.7
292.4216,128.4
292.4592,236.6
292.5033,297.3
292.6471,767.9
292.6872,104.6
292.7226,78.4
292.81,174.8
292.8968,1548.7
293.006,225.4
293.0298,135.4
293.0496,79.6
293.0723,2721.5
293.0983,342326.5
293.179,2084.7
293.279,107.3
293.4212,285.1
293.4969,425
293.5305,143
293.5912,533.6
293.6499,333
293.6812,100.9
293.7657,91.5
293.7866,283.7
294.063,372.5
294.0937,280.5
294.1017,31671.6
294.2354,337.9
294.5269,19.3
294.6003,19.9
294.8649,17.9
294.9559,20.2
294.9717,91.8
294.9909,77.3
295.0111,431.8
295.0307,1738.9
295.0738,579.9
295.1026,1244.9
295.1947,22763.9
295.2905,516.3
295.3495,147.6
295.3974,20.4
295.4482,21.8
295.5347,79.6
295.5743,577.4
295.622,289.8
295.6523,502.5
295.6873,1123.6
295.9825,282.5
295.9891,433.3
296.1043,464.6
296.1675,306.6
296.1974,962.5
296.2023,695.7
296.2519,95.5
296.3564,384.4
296.4248,690
296.6224,437.3
296.6527,645.2
296.7168,510.4
296.8019,169.9
296.8114,457.3
296.8277,901
296.9877,27
297.0085,134.1
297.0816,23
297.1075,53.9
297.1263,206.4
297.2171,285.3
297.271,282
297.3319,180.1
297.3494,199.1
297.429,940.2
297.5035,94
297.6517,172.6
297.7006,176.8
297.7301,19.6
297.7976,126.8
297.8534,183.4
297.976,700.3
297.9952,179.5
298.0253,646.4
298.0424,13685
298.0778,79.8
298.3784,108.3
298.5067,295.2
298.7493,342.6
298.8573,138.9
298.9872,378
299.0238,2109.9
299.0459,401.7
299.1393,8913.4
299.1664,780.5
299.1876,152.2
299.2339,183.1
299.5494,618.1
299.5946,18.5
299.6987,934
299.7534,574
299.9231,557.7
299.9746,714.1
300.0251,21.8
300.0354,1219.4
300.0754,1004.3
300.1722,565.8
300.196,47.3
300.2059,170.9
300.3058,167.2
300.3988,246.4
300.4688,365.6
300.6098,1186.7
300.7508,171.7
301.0117,47.5
301.0236,406.3
301.0386,26592.4
301.0766,16.3
301.1416,244.5
301.2123,2473.7
301.259,294.4
301.3391,20.8
301.3529,107
301.5014,471.9
301.5431,189.6
301.6485,18.2
301.8268,163.9
301.8507,189.6
301.9008,337.5
301.9083,390.1
301.994,6828.9
302.0199,793
302.0344,61.6
302.0512,358.4
302.0641,2805.6
302.2134,165.3
302.4019,626.7
302.4235,114.5
302.493,398.9
302.601,165.2
302.6663,727.6
302.709,330.5
302.7222,1217.7
302.7278,628.2
302.7416,95.7
302.8062,486.1
302.8297,1852.7
302.9301,321.3
303.0278,1034.3
303.0673,327.9
303.0748,2011.8
303.1608,108
303.2174,1404.9
303.2279,404
303.249,179.6
303.2637,161.3
303.3361,188.7
303.3894,1020.2
303.5525,99.3
303.7427,260.1
303.9859,326.3
303.9903,168.8
304.0599,110.7
304.082,132.8
304.0943,531.9
304.1399,200.8
304.2148,129.2
304.3112,137.1
304.3961,275.4
304.4731,277.9
304.5287,197
304.6315,364.3
304.6361,234
304.6565,21.6
304.7018,76
304.7085,626
304.743,501.4
304.7931,189.4
304.8272,619.1
304.8527,21.8
304.8942,21.1
305.0193,147.1
305.028,229.1
305.0553,663.3
305.1943,163.1
305.2286,461.1
305.5388,782.3
305.7167,132.9
305.8985,23.8
305.9367,159
305.9641,577.7
305.9831,83.6
306.0955,44.9
306.1921,111.3
306.1945,123
306.1961,113.7
306.2238,127.2
306.3678,415.1
306.3822,107.1
306.398,98.6
306.4241,341
306.4626,138
306.5142,378.8
306.5226,164.4
306.5408,415.1
306.6088,21.3
306.7749,119.7
306.8012,355.8
306.8221,338.5
306.8422,81.4
306.9772,1344.7
307.0258,208.9
307.0359,218.1
307.1143,396.9
307.1792,549.1
307.4102,95.4
307.5877,103.3
307.6163,24.7
307.6623,221.7
307.6961,199.6
307.8656,20.1
307.9116,114.5
308.0011,860.2
308.0132,178.6
308.064,1428.7
308.3496,132.4
308.48,113.9
308.6167,249
308.8082,136
308.8788,2288
308.9619,21.5
308.9836,119.2
309.0065,136.8
309.0278,734.7
309.0309,802.4
309.0376,3967.1
309.0619,294.2
309.0828,519.4
309.1513,80.7
309.2366,642.5
309.3181,248.3
309.9766,279.5
310.0202,25.7
310.1663,19.8
310.198,501.3
310.2288,565.2
310.2993,92.7
310.3985,507.5
310.4947,111.7
310.4975,113.3
310.5584,144.5
310.6798,86.3
310.6991,93.4
310.8421,18.7
310.8759,2509.1
311.0767,78.9
311.0922,106.7
311.1124,18
311.1216,128.1
311.1672,682.9
311.2338,104.3
311.2437,600.9
311.2838,244.9
311.3092,327.4
311.4391,19.1
311.5559,222.3
311.6058,223.4
311.6113,300.1
311.717,216.7
311.8525,311.2
311.9595,426.7
311.9996,25.4
312.0194,236.5
312.0293,46
312.0353,22.1
312.0563,162.2
312.1115,98.1
312.1608,480.1
312.2156,89.6
312.2495,309.3
312.2535,632.9
312.2964,189.1
312.4085,559.5
312.4173,110.4
312.5124,103.3
312.5274,944.1
312.5636,104.4
312.7138,20.6
312.766,100
312.7737,193.8
312.7859,103
312.8008,362.1
312.8584,592.6
312.9088,529.8
312.9701,325.4
313.018,202.6
313.0324,131.7
313.0899,426.7
313.105,37.1
313.274,51800.5
313.3581,162.4
313.3667,276.9
313.3742,592.1
313.3856,89.6
313.5724,299.1
313.5865,407.6
313.8621,359.6
313.9098,169
314.0147,4904.4
314.0747,315.7
314.0913,171.1
314.0969,563.4
314.1468,187.3
314.1766,192.4
314.2144,99.5
314.2774,6073
314.3933,18.1
314.4255,678.5
314.4481,325.4
314.4682,595.8
314.5386,273.4
314.5662,336.1
314.7063,81.8
314.759,241.5
314.8369,4632.6
314.9071,475.5
314.9991,5846.6
315.0044,451.5
315.0182,493.6
315.0367,154.9
315.049,1220.3
315.0553,8724
315.0619,2867.8
315.0642,5966.8
315.0663,16109.9
315.0699,23682.5
315.0736,25762.7
315.0802,8890879
315.0899,17489.6
315.0921,10832.3
315.0942,7057.8
315.0965,5714.4
315.0986,5427.5
315.1004,3538
315.1049,1515.2
315.1069,1074.5
315.1092,1021.1
315.111,893.8
315.1129,518.8
315.1175,465.7
315.1221,195.1
315.1239,204.4
315.1613,5723.9
315.2526,628
315.2604,140.9
315.3239,7001.1
315.364,82.5
315.4142,754.3
315.4475,142.8
315.4863,85
315.5733,315.9
315.6217,141.5
315.6615,337.6
315.8264,548.4
315.8617,110.7
315.9713,723
316.0105,195.9
316.0528,51.5
316.0682,691.9
316.0775,49870.1
316.0835,920206.4
316.1122,1168.9
316.2004,87.6
316.2392,19.7
316.4832,272
316.6089,136.4
316.7974,103
317.0117,94.5
317.0564,1195.6
317.0649,736
317.0756,136.4
317.0841,106211.4
317.2876,297
317.4297,89.4
317.4933,840.5
317.5354,223.2
317.6139,506.1
317.6236,181.8
317.9048,88.1
317.9336,384.3
317.9689,134.3
318.0171,314.9
318.0876,8794.9
318.1394,222.8
318.1939,467.5
318.2068,145.2
318.3641,88.9
318.37,324.6
318.4738,274.9
318.5747,152.4
318.7012,635.5
318.7925,457.7
318.8035,1499.1
318.8163,180.9
318.8504,118.7
318.8646,22.4
318.9065,253.1
318.9345,163.1
319.0669,447.8
319.1946,35717.4
319.2034,802.4
319.366,1010.9
319.5273,436.2
319.5737,19.8
319.6592,129.7
319.7055,390
319.7257,167.6
319.7454,194.5
319.8351,38.1
319.897,78.9
319.9735,256.9
320.0074,271.2
320.0745,85.3
320.1981,2872.3
320.2402,287.9
320.2589,2310.1
320.7263,21.6
320.7761,101
320.8009,646.5
320.8308,47.5
320.856,921.8
320.92,107.4
320.9367,18.6
320.9496,624.5
321.2104,45816.2
321.2621,149.8
321.4358,498.8
321.4606,292.5
321.5393,89.1
321.6266,332
321.6777,103.7
321.6869,94.5
321.8165,24.2
322.0077,269.3
322.0921,117.2
322.2136,5385.9
322.2873,162.6
322.4612,88.5
322.5376,653.3
322.6322,437.2
322.6433,97
322.7103,339.4
322.7667,245.8
322.8117,395.4
322.8506,448.4
322.9323,342.5
322.9918,97.6
323.0206,8747.1
323.0575,383.6
323.1642,227.3
323.1762,82.4
323.2266,24.3
323.2364,121.5
323.4029,86.8
323.5018,501
323.6724,20.9
323.8839,178.4
323.8969,910.1
323.969,790.4
324.0018,9379.1
324.0147,21.8
324.0814,1369.1
324.1377,3401.2
324.1723,213
324.3211,320.9
324.6194,1025.7
324.625,606.7
324.6274,547.9
324.6395,5767.5
324.6472,4391.7
324.6573,1122.5
324.7028,454.5
324.7531,227.6
324.8087,637.3
324.8256,711.6
324.8529,2083.9
324.8718,20.3
324.8766,375.9
324.8986,93.3
324.9056,193.9
324.9071,220.5
325.0067,80.4
325.0557,374.5
325.0728,106.3
325.2117,5826.7
325.335,81.4
325.3628,646
325.3779,131.5
325.6602,791.4
325.6832,124.4
325.9173,83.1
326.004,360.4
326.0274,173.6
326.0518,18.2
326.0809,722.9
326.1767,842.6
326.3272,837.3
326.3553,19.5
326.5186,21.7
326.5257,205.3
326.6489,342.7
326.6734,527.3
326.6908,111.1
326.7143,475.2
326.8341,82.2
326.8501,747.5
326.8609,251.6
326.8937,344
327.0048,78.5
327.0154,1398
327.145,422.9
327.1618,188.2
327.2272,16681.9
327.2959,763.3
327.3501,283.2
327.3864,451.1
327.4305,16.8
327.4894,365.9
327.5079,817.7
327.6085,287.1
327.8016,20.3
327.9085,73.6
327.9226,289
328.007,18.5
328.015,744.5
328.0305,49.1
328.1396,179.7
328.1562,211
328.2303,1008.4
328.2485,433.8
328.2705,431.9
328.4252,19.7
328.4689,221.1
328.4898,89.8
328.5482,159
328.6821,699.6
328.7905,179
328.7929,188.4
329.0044,941
329.0956,796.6
329.2807,227.2
329.3082,426.8
329.3181,81.1
329.4905,118.6
329.5415,19.8
329.7138,650.5
329.8351,120.5
330.059,168.4
330.1884,204.7
330.4151,435.1
330.4625,694.2
330.6311,99.4
330.6469,363.8
330.6539,345.7
330.6994,88.4
330.7534,367
330.9888,102.5
331.0194,1069
331.0454,93516.1
331.0542,1345530.8
331.2149,596.3
331.2167,597.3
331.2201,426
331.3822,18.1
331.588,196.5
331.8009,148.1
331.8066,505.8
331.8181,18.4
331.8484,506.3
331.858,95.3
332.029,576.8
332.0483,4007.7
332.0575,122747.5
332.1284,201.2
332.1788,652.4
332.1994,377.3
332.4007,630.8
332.5414,24.2
332.658,17.3
332.981,92.1
333.0523,79276.6
333.0579,13165.3
333.1332,190.1
333.1512,36.7
333.4024,127.1
333.41,183.4
333.8977,126.4
333.9115,154.7
334.0192,331.6
334.0283,376.8
334.0557,6701.3
334.063,122
334.0901,41
334.1872,152.2
334.1984,237.1
334.2963,19
334.3053,396.3
334.3785,491.1
334.4125,22.5
334.6759,851.4
334.8366,118.6
334.928,220.3
335.0889,115.3
335.1062,179.3
335.1224,196.4
335.1673,1869.1
335.4018,98.5
335.5295,853.6
335.5478,155.2
335.6184,21
335.7235,102.4
336.0086,1775.1
336.0967,472.6
336.3223,227
336.4257,234.8
336.4582,185.8
336.804,22.1
337.0231,220.4
337.0363,14089.4
337.0497,20491.2
337.0622,656233.2
337.1828,256.9
337.2368,109.7
337.2739,12156.3
337.3473,118
337.6152,396.8
337.66,798.5
337.8376,140.8
337.9563,95.8
338.0501,454.3
338.0655,57377.5
338.2004,657.9
338.3421,24.2
338.4781,764.4
338.6884,422.5
338.7024,433.7
338.7311,679.4
338.799,103.7
338.8226,132.1
338.8447,219
338.9205,351.5
339,224.7
339.0384,2749.2
339.047,826.6
339.0517,149.8
339.0661,4620.3
339.1235,198.4
339.1984,120.9
339.2898,4695.8
339.3218,498.6
339.4844,86.6
339.6631,638
339.8131,21.7
339.9668,621.3
339.9759,1057.3
340.0702,218.8
340.1229,73.3
340.2356,351.5
340.2566,563.8
340.3766,90.5
340.418,489.2
341.0178,171.4
341.0439,105.8
341.0871,21
341.095,193.9
341.1961,137.8
341.2967,403.1
341.3055,6800.8
341.4179,1048.1
341.5028,308.1
341.5107,78.1
341.6389,426.7
341.7551,256
341.8402,300.9
341.9594,329.6
341.9711,20.8
341.9895,124.2
342.0002,341.2
342.0153,7583.8
342.0579,722.2
342.1392,697
342.3549,780.6
342.419,20.1
342.5123,193.1
342.8244,423.2
343.0073,93
343.1666,21.9
343.1948,11118.6
343.2015,1792.4
343.4511,19.7
343.6009,654.2
343.6526,340.9
343.9168,407
343.9588,322.7
343.9886,1122.1
344.0077,89.1
344.0348,104.7
344.169,122.2
344.1986,1132.6
344.2196,573.7
344.2792,485.5
344.2878,306.8
344.4698,234.5
344.6315,73.6
344.6375,120.1
344.6718,560.4
344.8072,17.6
344.9764,122.8
345.1721,89.8
345.2093,1275.8
345.2719,17.8
345.3826,115
345.4557,377
345.4807,160
345.5835,190.9
345.6364,377.4
345.896,951.5
345.929,639.2
345.9839,41044
346.0091,438
346.0209,341.3
346.0409,278.9
346.1199,49411
346.1275,146.4
346.2832,162.7
346.3099,302.8
346.4068,16.9
346.4298,927.1
346.4761,131
346.5127,526.9
346.5295,637.2
346.6968,334.6
346.8068,19.8
346.9869,1607.7
347.0176,4873
347.1234,592.3
347.2121,96.2
347.3939,479.9
347.4071,306.9
347.5932,907.3
347.6036,877.9
347.7165,22
347.9666,849.8
347.9987,260.2
348.0211,124.5
348.107,16.6
348.1117,18.9
348.2145,626.4
348.276,92.5
348.4248,453.8
348.4334,18.7
348.4619,594.1
348.4692,215.6
348.6784,169.8
348.6995,703.3
348.755,467.1
348.8799,237
349.0179,1582.4
349.1439,321.5
349.2232,395.2
349.3804,83.5
349.4298,18.3
349.4704,577.3
349.5302,719.9
349.8185,641.9
349.9374,22.5
350.3139,785.6
350.445,766.6
350.572,90.9
350.6378,336.7
350.6605,101.2
350.7635,463.5
350.906,243.4
351.0132,248.6
351.07,335.3
351.1386,788.3
351.1914,194.9
351.2505,927.1
351.2807,184.4
351.5302,920.9
351.5957,16.2
351.6046,317.9
351.653,761.1
351.678,669.5
351.8596,90.6
351.8778,87.6
351.8862,292.8
351.9092,443.6
352.0323,103.1
352.1975,215.5
352.3253,588.4
352.4238,81.1
352.626,122.4
352.6548,748.8
352.8086,124.1
352.8753,376.2
352.8877,265.8
353.0103,371.5
353.0273,153572.2
353.0362,298596.8
353.0592,375.9
353.2498,219.9
353.301,211.8
353.6615,754.7
353.7349,566.9
353.8435,110.8
353.9906,298.2
354.0304,10629.4
354.0395,27996.1
354.2145,357.8
354.276,527.8
354.5163,420.4
354.7323,221.5
354.8704,525.5
354.9533,297.1
355.0119,671.2
355.0345,16994.5
355.0704,420.4
355.1626,423.9
355.1874,465.3
355.269,497.2
355.5495,526.4
355.5795,183.5
355.8164,211.1
355.8727,370.6
355.9316,125.2
356.015,39.4
356.0533,610.1
356.0708,44.4
356.3387,351.7
356.4175,122.2
356.4895,452.4
356.5202,102.5
356.5333,114.9
356.7105,98.7
357.0088,284.4
357.0259,139.8
357.0653,18
357.0806,316.2
357.2317,144.8
357.3356,453.3
357.3818,162.8
357.3931,26.6
357.4485,835.9
357.6191,186.5
357.645,541.2
357.66,183
357.6762,165.4
357.7083,75.2
357.7437,338.7
357.8488,116.3
357.8606,102.3
357.9776,659.8
357.9929,673.5
358.2283,321.1
358.4173,428.8
358.4272,189.6
358.4651,277.4
358.5139,109.3
358.7209,206.6
359.0079,169.4
359.0318,21552.9
359.0442,477584
359.0858,305.1
359.1672,846.4
359.2715,486.8
359.338,329.5
359.4026,21.3
359.4391,242.8
359.4435,334.5
359.4525,492.7
359.4613,1942.1
359.4761,1774.5
359.4895,493.1
359.5017,414.9
359.5138,310.1
359.5309,486.8
359.5503,141.5
359.6533,189.6
359.7891,111.3
359.9068,102.2
359.9273,358.7
359.9604,153.2
360.0306,118.4
360.0475,42133.3
360.1063,327.8
360.1237,450.9
360.3186,530.3
360.3243,342.5
360.3892,122.6
360.468,93.3
360.6814,350.7
360.81,21
360.9686,193.9
360.9868,207.4
360.9932,24.1
361.0203,6498.2
361.0288,1284.2
361.048,1827.8
361.1829,40.7
361.2742,911.9
361.3939,122.3
361.4938,151.1
361.6217,360
361.7756,79.7
361.8057,274.6
361.9578,14086.9
362.0027,343.2
362.0233,111.3
362.0939,22965.6
362.1126,95.6
362.2418,94.6
362.4235,891.9
362.4677,153
362.4974,18.9
362.5353,1009.5
362.5525,577.5
362.885,88.4
362.9035,540.1
362.9253,1005.3
362.9608,242
363.1073,77.9
363.2731,155.4
363.4087,100
363.4522,113.1
363.4617,194.3
363.4876,88.2
363.5647,374.2
363.6048,197.3
363.7216,486.1
363.7297,132.9
363.8,389.4
363.8396,644.6
363.9979,3661.6
364.0983,410.5
364.1812,706.5
364.3029,172.4
364.4036,175.6
364.5392,185.7
364.8343,19.7
364.9772,277.6
364.9947,118.3
365.0045,169.1
365.087,251.3
365.1057,5174.7
365.2879,80.4
365.3947,80.1
365.7314,22.7
365.7665,86.2
365.7982,952
365.8485,94.6
365.8766,181.9
365.9032,179.8
365.9549,746.3
365.9732,349.7
365.9821,179.3
366.046,85.7
366.1403,390.8
366.2327,123.3
366.2668,440.9
366.3453,18.9
366.3772,223.9
366.4567,170.4
366.799,134.4
366.8065,19.7
366.8726,308.7
366.9145,560.1
366.9896,88.3
367.0228,255.1
367.0424,167.2
367.1505,98.4
367.1712,149.3
367.2744,469.1
367.2849,138.8
367.3068,766.5
367.6193,141.8
367.648,114.6
367.6607,19.4
367.6834,234.2
367.7183,513.8
367.9366,275.1
367.9917,2481
368.0029,493.1
368.0299,120
368.0409,318
368.0569,543.8
368.1018,7122.1
368.2104,124.5
368.5425,586.1
368.6436,225.4
368.8704,1196.3
368.9336,109.6
368.9661,361.1
368.9924,3596.8
369.0008,22924.5
369.01,11783.8
369.056,97
369.1055,362.9
369.3317,90.4
369.3519,24.2
369.3799,788.6
369.4459,86.2
369.453,634.7
369.5125,127.4
369.6272,895.1
369.6682,522.6
369.6857,182.8
369.9098,620
369.9826,203.8
370.0602,225.8
370.0648,421.7
370.3335,193.2
370.3555,25
370.5947,307.5
370.6484,130.8
370.759,861.5
370.89,87.3
371,2458.6
371.5069,92.6
371.5188,156.6
371.5416,213.9
371.5929,243.9
371.6696,228.2
371.7564,20.6
371.7641,518
371.7873,128
371.8791,178.6
371.9132,182.1
372.0665,934.5
372.1944,599.8
372.2411,19
372.4041,211
372.5501,125.7
372.6822,419.8
372.708,80.3
372.7732,80.1
372.9953,328.8
373.0798,21.6
373.1945,109.8
373.4958,243.8
373.7316,38.8
373.7523,95.5
373.971,807.7
373.9845,203.5
373.9974,373.8
374.2328,93.6
374.423,423
374.7106,918.5
374.7188,948.8
374.742,19.7
374.761,362.7
374.9371,297.4
375.0092,147250.1
375.0181,164070
375.1151,481.2
375.3729,379.1
375.4347,311.3
375.4904,195.7
375.6538,1179.8
375.7082,666
375.8311,598
375.9484,91
375.964,22.7
375.9965,19
376.0124,11935.5
376.0215,14214.5
376.0538,252.6
376.0826,129.4
376.2337,791.8
376.2596,1039.2
376.3622,883.7
376.3655,863.2
376.3875,92.4
376.5882,162.1
376.8667,383.7
376.9848,564.6
376.9942,1764.8
377.0165,7729.5
377.221,174.7
377.2408,407.8
377.3479,91.2
377.3714,199.8
377.5091,139.7
377.5158,80.7
377.5562,213.2
377.6112,236.5
377.6795,735.2
377.9318,1372.1
378.0564,118
378.2887,90.4
378.305,227.7
378.3346,136.4
378.4444,868.4
378.6196,577.5
378.6469,188.8
378.6964,302.1
378.8632,311.6
378.9829,108.8
379.0501,197.7
379.0627,83.2
379.1966,305.7
379.2042,18
379.2843,117.5
379.3512,85.2
379.3819,90.7
379.6941,374.9
379.8659,227.6
380.0647,325.3
380.1713,83
380.1806,86.7
380.2562,206
380.321,96.3
380.4226,426
380.535,646.2
380.77,544
380.8453,281.1
380.8946,279.8
381.0035,290.6
381.0135,29699.3
381.0261,281872.7
381.0795,1917.9
381.0951,361.5
381.1697,699.5
381.4653,232.2
381.4774,203.4
381.7406,295.2
381.971,91.2
381.9822,330.5
382.0138,580.1
382.0294,24184.8
382.0843,353.6
382.1258,413.8
382.1425,82.1
382.6287,215.1
382.6396,324.3
382.6508,437.6
382.6963,165.1
382.7676,791.2
382.8224,114.8
382.8584,20.2
382.8699,390.9
382.9524,104.3
383.0118,454.7
383.0299,179.7
383.0377,181.4
383.0792,18.5
383.1164,114287.5
383.1564,350.4
383.5949,642.1
383.6586,297.6
383.8509,80.7
383.9656,1774.6
384.076,4521.7
384.12,11624.2
384.1484,221.8
384.33,105
384.3971,326.4
384.4143,400.8
384.4875,86.3
384.6728,281.5
384.6898,19.2
384.7642,434.4
384.793,208.1
384.9736,992
385.2601,311.3
385.2796,90.8
385.7435,168.1
385.9793,12659.5
386.2115,751.8
386.275,377.9
386.5466,158.7
386.6287,474.8
386.6805,119.1
386.8157,91.3
386.9091,625.2
386.975,215.7
387.0023,406.1
387.0462,388.4
387.0657,327.1
387.1074,145.4
387.1724,89.3
387.2054,187.1
387.412,655.9
387.5667,406.3
387.6807,380.2
387.6979,205.3
387.778,851.1
387.7905,104.6
387.9214,559.9
387.9786,1070.9
388.0404,550.1
388.0783,730.7
388.108,149.1
388.2763,410
388.381,1134.3
388.6239,188.8
388.6942,224.9
388.8065,216.6
389.4128,573.6
389.7224,77.3
389.7761,105
389.807,117.3
389.8878,307.3
389.8995,137.7
389.9581,118.3
389.9737,44174.2
389.9838,99.4
390.1014,96.2
390.1465,166.6
390.2035,382.1
390.2386,337.1
390.2876,128.3
390.7089,500.6
390.731,389
390.7471,153
390.7985,500.2
390.8814,253.5
390.8946,812.7
390.898,658.9
390.9024,604.3
390.9226,697.5
390.9666,744.4
390.9743,7211
390.9828,31033.6
390.992,23922.1
391.0261,161.3
391.1942,954.7
391.3202,222.7
391.3845,196.5
391.5256,84.6
391.5699,695.5
391.6708,382.7
391.7864,18.8
391.8458,248
391.9723,209.3
391.9865,383.3
391.9956,113.9
392.005,53.3
392.0541,93.2
392.1845,229.4
392.264,209.6
392.3532,115.2
392.4378,729.9
392.6635,127.9
392.6925,326.5
392.7196,98.5
392.7957,947.9
392.8482,133.6
392.9045,163.1
392.9681,346.8
392.9818,3253.4
392.9899,1040.1
393.0701,84.8
393.0822,79.7
393.1326,17.8
393.3724,508
393.4884,87.7
393.6585,18.9
393.7143,276.6
393.7336,200.5
393.9208,649.1
393.9894,270.8
394.0299,387.8
394.2438,130.2
394.7462,754
394.8312,139.8
394.9778,305.7
395.0024,646.5
395.0569,151.3
395.0657,269.9
395.0848,466.9
395.1526,100.8
395.1649,17.9
395.2972,111.6
395.3182,753.3
395.3822,117.4
395.5211,522
395.7429,381.2
395.7666,111
395.7775,89.5
396.3029,18.2
396.3638,93.8
396.5101,20.6
396.6863,519.3
396.7436,666.2
396.7881,161.4
396.951,20.9
396.9912,169412.4
397,103973.4
397.0377,445.1
397.1175,136.9
397.1542,497.9
397.202,512.9
397.3981,99.8
397.44,24.4
397.8244,19
397.8426,205.8
397.9239,101.1
397.9605,119.4
397.9945,14900.7
398.0035,5691.1
398.2416,13576.3
398.3379,255.7
398.4261,562.8
398.4685,17.5
398.5302,866
398.5635,290.4
398.6186,265.4
398.7345,373.3
398.7412,1436.9
398.8146,643.5
398.9556,22.1
398.9877,488.6
398.9988,2429.2
399.0141,496.4
399.1135,137.4
399.2122,98.7
399.2454,1408.6
399.3784,197.8
399.3865,660.5
399.4601,399.1
399.5561,21.8
399.706,96.7
399.7241,125
399.8847,195.2
399.9432,160.8
400.0495,775.2
400.2182,454.5
400.3032,133.9
400.6079,87.5
400.7381,565.8
400.8209,19.5
400.828,602.4
400.9749,22.3
400.983,583.3
401.1495,169.5
401.2658,18.7
401.2775,19.4
401.3696,74.4
401.6756,574.7
401.7994,371.9
401.9532,2283.1
402.3175,442.6
402.3477,420.1
402.4188,332
402.987,535.6
403.008,278177.8
403.0253,150.1
403.0447,441.5
403.2944,20.5
403.4803,184.9
403.6974,371.4
403.9422,1082.7
403.9516,667.5
403.9617,129.8
403.9725,621.2
404.0113,23890.7
404.3439,545.3
404.5184,521.7
404.6264,381.1
404.6428,311.1
404.6861,328.9
405.0126,793.9
405.1669,277.5
405.2719,336.7
405.7613,442.2
405.7883,20.1
405.8166,115.6
405.8588,979.3
405.9476,29354.4
406.1414,293.7
406.2315,199.9
406.2432,412.3
406.2497,106.7
406.3297,690.5
406.6398,686.4
406.6874,20.3
406.7027,406.9
406.7323,191.9
406.7726,1870.1
406.7817,457.7
406.9365,484.3
406.9551,2181.8
406.9663,205.4
406.9788,404.1
407.0164,75.4
407.1771,117.3
407.1937,91.6
407.2066,92.6
407.229,160.5
407.3331,71
407.3635,755.3
407.3822,828.7
407.632,159.3
407.6707,195.5
407.6887,156.5
407.7527,188
407.9454,149.9
407.9542,91.2
407.9914,131.4
408.0009,86.1
408.0147,167.9
408.1481,385.9
408.2501,456.1
408.3021,970.6
408.6717,556.1
408.7151,17.7
408.7695,1100.6
408.956,496.2
408.984,2044.2
409.1726,156.9
409.2281,80.4
409.3109,146.9
409.3458,320.3
409.502,760
409.7269,412.5
409.8254,196.4
409.8438,110.1
410.0015,125.7
410.0195,766.6
410.034,88.7
410.2927,184.1
410.3669,1014.7
410.4286,793
410.5205,17.8
410.527,161.2
410.7198,169.8
410.8304,790.9
410.9011,167.7
410.9676,100.8
411.1478,2351.9
411.1606,18.8
411.4756,649
411.5525,83.4
411.5942,145.2
411.8006,173.5
411.8563,713.8
411.9077,91.6
412.2048,81.2
412.2748,84.9
412.293,18.6
412.3215,1930.8
412.404,77.7
412.5907,127.9
412.619,263.6
412.7968,716.6
412.8892,339.9
412.9363,18.8
412.9647,51141.8
412.9739,24218.8
413.011,333.2
413.1705,151.4
413.2664,3745.5
413.3246,338.7
413.3602,710.8
413.6712,717
413.9392,200.3
413.9673,799
413.9772,179.1
413.9962,19.4
414.2697,202.6
414.6529,146.3
414.9137,311.6
414.9349,249.8
414.9424,18.8
414.964,2236.6
414.97,1156.2
414.9978,1278.8
415.0376,49.6
415.0597,230.6
415.7751,209.3
415.8759,100.3
415.9765,27.1
416.1357,3849.1
416.2143,17467.8
416.2719,168.9
416.3294,863.5
416.4065,211.6
416.5543,262.3
416.6863,475.1
416.7125,392.1
416.8004,421.3
416.9438,138.4
416.9561,20.8
416.9775,245.3
417.0036,768.7
417.0559,83.4
417.2086,85.4
417.2174,2012.5
417.3928,23
417.4142,168.3
417.4938,373.6
417.6542,189.4
417.7942,19.8
417.8027,118.5
417.813,788.8
417.8505,99
418.3153,118.3
418.347,616.3
418.4307,254.5
418.444,89.6
418.6495,270.9
418.6883,167.3
418.8764,130.6
418.982,122016.6
419.0427,245.4
419.2067,434.8
419.2304,677
419.2568,651.6
419.3457,243.6
419.503,133.5
419.5942,87
419.9169,190.3
419.9853,7002.6
419.9999,37.5
420.1387,160
420.244,98.7
420.4697,378.1
420.5938,782
420.6561,377.9
420.7334,105.8
420.7361,108.9
420.7547,237.5
420.8382,269.9
420.9802,4725.6
421.2077,138.2
421.2213,890.4
421.4946,117.3
421.5419,725.2
421.9215,8651.8
421.9667,113.7
421.9946,156.7
422.1799,75.6
422.4025,78.7
422.7282,254.3
422.7463,466.6
422.8456,648.2
422.967,115.7
423.1016,595.8
423.1971,584.2
423.213,210.4
423.2208,121.1
423.6676,381.7
423.7582,87
423.7734,21.5
424.0185,18.7
424.0317,223.3
424.0808,944.9
424.3822,521.8
424.7441,604.8
424.8926,80
424.9364,158.1
425.0287,27.9
425.0427,635.4
425.2279,186.5
425.3065,201.7
425.4961,460.4
425.8853,131.3
426.1856,181
426.3209,282.7
426.3578,2123.3
426.7291,319.5
426.7957,317.6
426.8385,276
426.8468,332.1
426.8958,909.2
426.9414,56.8
427.2845,707.1
427.5302,592.2
427.6705,141.1
427.7404,201.5
427.891,355.6
427.905,192
427.982,97.4
428.1201,103.2
428.2005,124.9
428.2674,148
428.2746,84.1
428.3719,155.1
428.62,865.4
428.9377,11190.4
428.9479,98.8
428.9968,310.2
429.0076,312.1
429.0206,804.7
429.0375,142.5
429.0544,1158.7
429.0893,513.8
429.2407,370.4
429.2851,157
429.3628,115.6
429.895,547.9
430.0881,48.1
430.2072,685.6
430.3207,609.6
430.5116,84.5
430.6843,457.1
430.7993,111
430.936,90.4
431.2168,4269.7
431.2368,186.1
431.2585,23.3
431.3845,431.4
431.4651,189.7
431.5693,117.3
431.6346,304.3
431.7865,159
431.9505,77.5
432.3276,78.2
432.4943,157.3
432.5408,224.5
432.8488,103.5
432.8576,226.7
433.0546,492.6
433.2499,55
433.4228,131.8
433.554,17
433.8773,126.3
434.0308,20.7
434.2345,95.3
434.2502,18.2
434.5528,279
434.7683,253
434.8041,18.6
434.8623,122.6
434.9559,27654.9
435.0099,207.2
435.2302,350.3
435.411,20.4
435.5435,468.5
435.6166,283.2
435.6898,202.5
435.7343,144.3
435.9245,180.7
435.9591,953.8
436.0186,314.6
436.0361,178.2
436.5694,717.3
436.6332,21.1
436.9147,79.5
436.9333,127.9
436.9534,1229
437.1138,216.8
437.205,1312.5
437.2248,171
437.3302,806.5
437.3662,291.7
437.6252,423
437.6459,372.7
438.205,128.9
438.2175,465.2
438.2889,207.6
438.3928,104.1
438.5274,281.4
438.7236,331.3
438.9721,2226.5
438.9849,6962.3
439.012,163.2
439.1683,699.2
439.2047,86.6
439.4719,21.6
439.5665,988.7
439.6343,148.2
439.9138,547.8
440.0316,110
440.1298,103.6
440.2121,798.5
440.2789,129
440.7243,621.1
440.9677,817.9
440.9824,804.4
441.1442,23.4
441.298,140.1
441.319,493.1
441.5466,83.6
442.0293,234.3
442.1591,423.8
442.1792,164.8
442.2441,223.4
442.3001,26.9
442.8475,112.2
443.1366,712.8
443.2376,111.7
443.2543,1054.7
443.2911,332.7
443.9383,113.2
443.9739,447.1
444.0072,702.4
444.0851,404.3
444.3045,77.2
444.4286,306.1
444.4492,681.6
444.5119,91.5
444.7627,149.5
444.8553,110.6
444.914,388.3
445.0077,221.9
445.1438,18.9
445.2335,1750
445.2599,456.9
445.2693,2076.2
445.3425,996.1
445.7214,865.2
445.9167,132.4
446.3018,83.5
446.7874,19.7
446.9198,267.7
447.0745,183.4
447.1516,87.8
447.3275,115.2
447.7771,409.6
447.9322,4312.8
448.3634,295.8
448.3859,1124.8
448.6264,194.7
448.6503,573.7
448.741,203.6
448.8953,355.9
448.9325,2188.5
449.0807,444
449.1537,2411.8
449.2363,548.1
449.4037,379.9
449.4448,480
449.6414,395.2
449.7233,216.2
449.7368,347.5
449.8894,604.1
449.9299,422
450.1576,424
450.644,859.5
450.9305,1405.5
451.1503,158.2
451.4,497.5
451.4633,807.9
451.4964,87.9
451.5893,130.2
451.708,80.1
451.8157,374.1
451.8426,88.2
451.8485,114.6
451.9691,20.9
452.2684,92.2
452.5597,923
453.0722,209.6
453.1131,193.4
453.1473,72.7
453.1744,560.6
453.5404,105.2
453.8957,399.4
454.2101,138.2
454.2798,22.2
454.5196,660.2
454.5765,98.6
454.9499,34771.2
455.2246,648
455.4355,260.6
455.4483,229
455.8869,202.5
455.9535,500.9
455.9775,331.7
456.0423,430.5
456.0939,219
456.3698,395.3
456.4216,96.9
456.6997,651.9
456.7198,370.1
456.8197,724.7
456.8849,83.2
456.9081,250.1
456.9468,9015.8
456.9575,1211.6
457.1091,555.9
457.2327,15112.4
457.5137,237.5
457.8354,234.9
457.962,371.5
458.0481,639.6
458.2155,1398.4
458.2423,79.7
458.2564,21.1
458.2805,151.2
458.5758,125.8
458.7424,480.4
458.9462,291.8
458.9606,715.4
459.1052,85.1
459.1798,22.1
459.1919,102.3
459.2485,559960.3
459.3369,354.8
459.382,487.5
459.4246,117.1
459.9454,21.2
460.2518,115230.2
460.4024,143.8
460.7378,473.1
460.7493,98.5
460.8427,637.2
460.8554,96.8
460.9666,86397.6
460.9888,125.2
461.1437,92.1
461.2549,7859.7
461.3382,106.4
461.7191,129.7
461.805,436.7
461.9699,4434.2
461.9882,546.1
462.3299,86.5
462.9636,20774.5
463.1804,104.7
463.2026,957.4
463.3283,197.8
463.3511,338.1
463.3727,328.6
463.4507,470.5
463.5903,94.6
463.9065,2283.5
463.9664,462.6
464.0257,509.6
464.1881,920.3
464.2307,90.2
464.2781,660.9
464.4086,216.4
464.5408,371.7
464.6678,141.7
464.7346,213.6
464.9786,6574.8
465.1073,928.6
465.4483,432.2
465.625,20.1
465.6942,788.6
465.9033,103.3
466.5819,204.9
466.7628,138.5
466.8622,889.2
467.0664,214.3
467.2249,341.9
467.2999,716.2
467.6383,806.4
467.7051,879.2
467.7385,147
467.8249,214.9
468.1003,124.9
468.3086,4202.9
468.3193,247.8
468.5896,345.7
468.5986,191.5
468.7664,242.3
468.909,196.3
469.0047,214.1
469.1805,271.4
469.3668,249.6
469.3823,159.6
469.3989,256.2
469.6136,191.9
469.8374,368.7
469.8645,295.4
469.9689,91.8
470.0772,376.9
470.3715,619.1
470.4101,537.6
470.6203,563.8
470.6663,502.4
470.9236,17629.2
470.9844,122.4
470.9953,4832
471.2867,1329.4
471.2973,112.7
471.6709,679.5
471.7389,95.4
471.7839,165.8
471.9266,412.7
472.0788,94.8
472.1967,429
472.3492,231
472.4441,125.9
472.4774,18.2
472.5497,694.6
472.8014,93.6
472.8403,741.6
472.882,115.7
472.9209,3916.2
472.9557,357
472.9736,318.5
473.0031,179.4
473.0127,296.2
473.0276,1532.6
473.0481,546.3
473.2097,102
473.2638,5180.5
473.5111,343.6
474.0034,19.1
474.0682,20.7
474.1908,340.2
474.2063,153
474.3997,368.7
474.4312,476.2
474.6697,323.8
474.7514,19.5
474.9771,117.2
475.093,318.4
475.1169,390.2
475.2224,33001.1
475.3197,292.9
475.3748,773.4
475.641,135.5
475.6847,405.5
475.936,336.7
476.089,52.9
476.1545,85.4
476.1916,729.4
476.2252,4476.8
476.9065,135.4
476.9405,59390.9
476.9856,410.2
477.0997,990.3
477.2211,1526
477.3438,466.6
477.3758,106.4
477.6591,638.7
477.6743,163.1
477.7475,312.3
477.9438,3955.5
477.9584,575.8
478.1274,1040.4
478.1367,79.2
478.2811,962.3
478.2931,634.7
478.3294,48254.5
478.3586,102
478.5454,113.4
478.6943,82.8
478.8006,564.8
478.9378,18401.3
479.0955,23.3
479.2019,129.4
479.2376,415.5
479.3172,337.6
479.333,7838.2
479.3564,19.3
479.5236,18.6
479.7618,357.9
479.8217,396.3
479.8807,107.1
479.9408,598.6
480.2758,784.9
480.2826,763.6
480.3347,81.6
480.3451,2362.2
480.3661,83.9
480.4446,232.1
480.8569,280.4
480.9403,202.5
480.9524,2959.5
480.9765,226
481.0916,1619.4
481.2247,1119.9
481.233,938.7
481.2602,586.2
481.4835,101.1
481.5234,513
481.6722,411.7
481.6993,85.8
481.7592,22.1
481.9096,316.2
482.0952,256.2
482.3248,2332.4
482.3498,102.7
482.3603,607.6
482.5191,187.9
482.6112,184.3
482.6339,81.8
482.8442,548.4
482.8967,165.8
483.064,269.5
483.0863,496.1
483.2483,174528.4
483.4535,112.2
483.5897,328.2
483.7797,153.9
484.1349,314.6
484.2518,35355.2
484.2651,421.6
484.3654,104
484.4217,83.8
484.4664,17.9
485.0135,679
485.0272,177.7
485.1048,671.5
485.1592,20.6
485.2071,942.8
485.264,127177.7
485.37,122.8
485.454,98.1
485.4952,354
485.5336,89.7
485.5573,879.9
486.0104,97
486.0767,514.5
486.15,278.5
486.2672,29635.6
486.2872,173.4
486.3509,189
486.3864,440.8
486.3891,442.5
486.8969,1533.2
486.9699,1022.1
487.1354,274.1
487.2797,121023.6
487.3646,599.3
487.3933,451.8
487.6806,150.1
487.7448,513.9
487.8086,19.8
487.8737,215.3
488.0459,145.8
488.1379,93.3
488.1585,82.5
488.248,266.9
488.283,29116.9
488.5987,210.2
489.009,220.5
489.0227,23.2
489.0551,21.4
489.0875,21.4
489.1637,196.1
489.1899,293.6
489.2177,284
489.247,866.8
489.2685,210
489.2842,1058.3
489.3044,937.5
489.3298,452.3
489.3555,320.4
489.374,100.1
489.3856,155
489.4046,622.8
489.4201,24.8
489.4611,274.8
489.6728,22.5
489.9548,534.9
490.1906,133.1
490.242,289.6
490.2906,10209.3
490.3344,412.3
490.449,331
490.7488,328.4
490.9744,202.8
491.2369,405.1
491.293,1282.9
491.323,207.4
491.3567,1148.9
491.4022,375.3
491.4791,329.8
491.8593,183.3
491.9131,503.8
492.1929,117.4
492.4267,345.5
492.4508,465.1
492.5311,104.4
492.9146,11514.2
492.9335,655
493.3657,565.7
493.3763,98.9
493.4375,238.9
493.5789,575.1
493.5889,373.8
493.7902,85.6
493.9575,135.7
494.0106,524.6
494.0595,412.6
494.0708,86.6
494.1169,212.1
494.3244,14739.2
494.9116,4474.9
495.1162,714.9
495.3224,659.5
495.3348,297.8
495.4697,230.1
495.7649,79.8
495.8877,17.1
496.0552,102.5
496.1507,170.7
496.34,634630.8
496.7077,342.3
496.737,430.9
496.9307,479.8
497.121,20.6
497.221,19.3
497.2586,18.9
497.3433,151020.8
497.7171,422.5
497.8556,118.5
498.3291,124.9
498.346,11396.4
498.3957,93.9
498.4307,656.2
498.4454,111.6
498.8291,150.4
498.914,273.3
499.1964,111.9
499.2225,11088.4
499.455,601.6
499.6075,708
499.618,101.7
499.6604,643.3
499.669,193.4
499.7258,977.8
499.7835,259.6
499.9954,20.9
500.146,241.9
500.2231,629
500.3125,1530.3
500.796,120.2
501.134,965.3
501.201,157.5
501.2379,7086
501.3302,18.1
501.4001,81.1
501.9613,179.9
502.2618,233.5
502.2921,1726.7
502.3291,15672.9
502.4594,476
502.6733,104.1
503.108,126.3
503.2265,457
503.2534,7150
503.3323,574.8
503.3524,421
503.486,20
503.4911,19.2
503.804,145.6
503.8856,633.5
504.0359,758.4
504.0912,275.4
504.169,387
504.2265,462
504.3067,2372.6
504.344,6835.3
504.3815,317.1
504.6282,313.6
504.7892,114.3
504.8523,1065.7
504.9191,621
505.0866,920.2
505.232,1706.7
505.3269,318.3
505.573,376
505.584,338.4
505.5901,81.8
505.6748,21.9
505.7426,685.4
505.8908,308.3
506.2643,2015.1
506.3195,297
506.34,139.8
506.3602,4997.4
506.3852,125.9
506.4389,888.6
506.6428,106.9
506.7762,236.3
506.8482,86.6
506.8914,758.8
506.9916,94.7
507.0206,237.5
507.15,407.4
507.2484,38634.2
507.3638,56.8
507.3793,124.7
507.422,252.4
507.5296,115.9
507.617,174.5
507.6288,250.3
507.888,136.9
507.9228,318.6
507.9361,266
508.0098,977.7
508.204,124.1
508.2516,7921.4
508.3713,276.5
508.5806,84.8
508.6675,21
508.7713,18.3
508.8731,88.5
508.8887,786.4
509.0045,5016.4
509.2641,18196.1
509.418,106
509.7784,1319.9
509.8057,22
509.9325,108.2
510.111,539.2
510.1549,644.2
510.2673,2192.3
510.3557,3715.2
510.7009,352.7
511.0196,19.9
511.0977,311.4
511.1153,786.3
511.2943,76.6
511.3155,158.4
511.4699,153.4
511.9688,418.7
512.2394,82.7
512.3381,713.7
512.6857,204.3
512.9085,12497.4
513.1455,130.7
513.2411,101
513.35,273.1
513.5394,122.1
513.8286,223.8
513.8453,177.5
514.0352,637.9
514.1308,388.4
514.3668,195.4
514.6501,767.7
514.7274,125
514.9058,5571.1
515.0215,1079.1
515.0321,603.5
515.268,795.7
515.4547,379.6
515.7723,240.2
516.3062,24446.1
516.3234,181.3
516.3998,112.8
516.6436,217.6
516.7849,572
516.8031,91.8
516.9503,1370.6
516.988,1219.2
517.0709,18.5
517.1487,163.3
517.2941,495.4
517.3085,1395.7
517.7334,117.6
517.8672,81
517.9648,119.3
518.1262,461.5
518.3219,1006980.4
518.8048,266.7
518.9252,27026.8
519.0326,100.3
519.3253,239829.8
519.4988,399.8
519.6624,215.7
519.719,241.1
519.9283,1549.9
520.0161,103.5
520.3291,29305.6
520.34,183594.7
520.4248,418.8
520.6025,178.7
520.922,18859.3
521.3434,52544.4
521.4322,585.7
521.4479,94.2
521.7161,144.4
521.7969,94.7
521.864,114.6
521.9258,1385.8
521.9387,208.2
521.9776,364.9
522.2571,859.3
522.3557,160193.9
522.407,768.5
522.5158,330.6
522.7572,19.9
522.9194,1513.4
522.9369,3917.9
523.2104,190.5
523.2219,641.5
523.269,17.4
523.359,40067.1
523.4505,350.5
523.7245,157
524.0907,412.1
524.1082,927.6
524.1214,409.5
524.136,268
524.1786,252
524.1971,711.6
524.2492,98.8
524.2764,198.2
524.3713,179783.8
524.4443,312
524.5287,890.5
524.5498,600.2
524.6876,1031
524.9342,1079.5
524.9782,1050.9
525.3155,615.6
525.3746,45307.4
525.6944,139.4
525.7509,18.9
525.8876,254.7
526.0204,360.4
526.1858,596.5
526.2538,19.1
526.3295,2682.1
526.3773,1076
527.3325,568
527.464,116.8
527.5193,676.6
527.5951,132.3
527.6518,189.5
527.8438,170.6
527.9445,175.3
528.8184,172.8
528.8822,4766.5
528.9543,1863.4
528.9776,110.6
529.3436,250.1
529.4065,382.2
529.5961,415.5
529.845,122.9
529.9139,102.1
530.2775,79.2
530.3586,1752.7
530.3906,79.3
530.4051,623.2
530.5432,373.3
530.8565,20.7
530.8796,3368.4
530.9503,750.1
530.9951,402.8
531.2485,3790.1
531.5789,86.6
531.7012,495.5
531.7961,82.6
531.8457,336.5
531.92,82.5
531.9831,434.1
532.136,569.5
532.2638,469.4
532.2806,2599
532.3376,13687.1
532.4812,779.9
532.489,727
532.6118,97.7
532.6303,395.1
532.6979,95.1
532.8946,18.4
532.9667,672.8
533.0658,118.4
533.1971,92.6
533.2343,19.2
533.3403,866.9
533.4932,765.6
534.08,395.5
534.1584,19.8
534.2124,648.9
534.2959,300937.7
534.3163,1832.1
534.4521,837.4
534.4736,209.2
534.488,20.1
534.6256,233.4
534.7191,326.2
534.833,94.8
534.8992,19078.7
535.0303,202.4
535.0744,504
535.2512,133.9
535.2993,71686.8
535.3674,865.1
535.392,125.8
535.6513,164.1
535.688,361.4
535.8408,600.4
535.9024,943.3
535.9623,116.2
536.035,82.7
536.2939,14800.7
536.3335,289.4
536.8055,19.2
536.8961,12625
537.1518,107.7
537.1835,116
537.2972,3191.4
537.3414,1861.5
537.6741,622.3
537.8213,1033.5
537.9502,140.2
538.1508,94.8
538.4082,275.2
538.7049,402.5
538.8937,1553.7
538.9102,1830.2
538.9314,1324.2
539.0347,218.6
539.1964,85
539.3241,81.1
539.3482,862.8
539.5509,873.3
539.6599,730.6
539.9279,383.2
539.9494,196.5
540.1239,222.1
540.1934,109.4
540.2797,598.1
540.2864,620.3
540.3051,700.7
540.7418,80.9
540.9076,465.8
541.1484,823.8
541.3238,229.6
542.3219,279807.5
542.4548,102.3
542.6997,694.7
542.7719,471.4
542.7861,324.3
543.0959,379.8
543.2693,552.5
543.3253,71826
543.4011,214.9
543.5397,603.6
543.6697,152.6
543.7962,410.7
544.0664,154.8
544.1924,868.5
544.2824,451.9
544.3377,244143
544.7109,335.3
544.7425,422.7
544.8558,1426.5
544.9486,775.2
545.3412,63053.2
545.4109,184.8
545.6758,135
546.2192,19.6
546.2565,1471
546.3142,20.9
546.3533,275195.9
546.5773,194.5
546.7052,17.9
546.7813,335.4
546.8993,329.3
547.2195,136.4
547.3567,71237.1
547.3885,453.3
547.5544,120.1
547.8091,922.5
547.9158,86.1
547.943,818.3
548.1936,125.4
548.2906,186.2
548.3118,1501.5
548.36,7489.9
548.428,89.2
548.5509,281.8
548.5881,113.1
548.6003,197.9
548.8495,353.9
548.9877,81.7
549.0397,163.7
549.317,968.5
549.6033,98.2
549.7123,197.1
549.7587,127.6
549.9726,385.1
550.0318,159.2
550.1097,884.3
550.156,97.4
550.2557,21.8
550.4556,650.9
550.4948,202.4
550.6323,177.8
550.7441,478.6
550.873,5270.4
550.9994,436.8
551.0349,20.4
551.2149,91.4
551.4419,95.5
551.511,22
551.5571,18.1
551.5738,634.9
551.6036,193
551.8753,392.3
551.9924,418.9
552.0949,318.5
552.2156,374.5
552.2797,22.7
552.3745,202.5
552.4197,236.7
552.7048,109.1
552.7539,91.3
552.7894,155.1
552.8694,3457
552.9729,248.1
553.0398,109.6
553.3974,280.3
553.5342,87.9
554.4601,958
554.9206,89.3
555.0549,212.8
555.0792,89.1
555.1105,122.6
555.25,229.4
555.2827,186.2
556.1402,23.4
556.266,250.9
556.2944,87.7
556.4247,26.1
556.5498,342.4
556.6447,338.9
556.8889,128.3
557.3514,30.7
557.7253,134.6
557.8051,820.2
557.879,389.1
558.0961,795.1
558.1459,132
558.1733,82.9
558.2959,88037.3
558.3526,1525.7
558.6587,182.7
558.8441,118.9
559.1023,328.8
559.2715,223.6
559.2993,18694.5
559.5328,785.6
559.6735,591.7
559.7677,316.5
559.7734,321.6
559.8499,293
560.2771,271
560.2952,1129.3
560.3115,70656
560.3335,131.2
560.4263,331.8
560.9104,428.8
560.9219,355.9
560.9948,1083.5
561.0998,19.7
561.1943,94
561.2684,102
561.2993,490.9
561.3147,17668
561.3717,642.2
561.414,1340.9
561.9449,366
562.1088,445.4
562.3094,2537.8
562.3273,74809.4
562.6104,107.2
562.7964,878
562.8238,21.5
563.0365,338.7
563.2237,229.8
563.3308,15459.1
563.5608,22.4
563.6138,409
563.9151,150.6
564.2862,85.6
564.3063,810.4
564.3258,1455.1
564.4349,151.7
564.5692,969.7
565.0443,656.4
565.2374,556.2
565.2826,874.8
565.3807,176
565.5218,884
565.9126,144.1
566.0409,587.1
566.115,223.4
566.2672,1115
566.322,53117.7
566.3756,611.6
566.5996,532
567.0611,500
567.3252,13192.9
567.571,958.8
567.7394,94.9
567.7608,409.1
567.9862,252.3
568.0204,289.1
568.092,353.6
568.242,175.2
568.3378,33666.5
568.4657,192.6
568.9781,445.2
569.0391,125.8
569.3415,5407.7
569.4935,680.1
569.9606,625
570.3533,1276.4
570.8681,3455.8
570.9006,227.3
570.9409,110.8
571.0622,148.7
571.2186,139.4
571.4242,659.8
571.5893,110.5
571.9312,990.8
572.3177,297.8
572.37,1030
572.5698,311.1
572.8647,2398.2
572.9787,859.5
573.9009,119.6
574.0879,134.6
574.1331,410.1
574.2829,2740.2
574.7641,206.5
574.7778,189.4
574.9307,301.9
575.3924,737.9
575.5042,9585.1
576.1013,849.7
576.2805,11194.5
576.6531,596.2
576.7066,20.7
576.7259,123.4
576.8842,9555.5
576.9045,353
576.9912,695.6
577.2843,2392.4
577.5194,367.4
577.5925,128.5
577.9025,679.1
578.2782,822.1
578.6248,19.7
578.7243,19.2
578.8808,10559.3
579.0005,19.4
579.016,713
579.2468,204.1
579.2604,217.4
579.4551,142.5
580.282,517.6
580.3599,270.4
580.4211,877.9
580.4476,638.1
580.8434,407.7
580.8783,1398.9
580.8959,1890
580.9101,441.5
580.9803,251.7
581.7936,98.7
581.8192,83.3
581.9363,93
582.0423,229.5
582.1415,460.5
582.1665,199.7
582.2635,204.9
582.2703,186.2
582.2957,17665.3
582.3153,159.4
582.3514,330.7
582.3644,93.9
582.3792,391.3
582.3908,370.1
582.4042,537.5
582.4416,346.8
582.4665,625
582.4888,496.9
582.7139,20.4
582.8937,625.7
582.937,440.1
582.9639,92.3
583.2554,2197.8
583.2994,2971.1
583.3686,1076.1
583.4133,833.7
583.9309,189.2
583.9434,380.6
583.98,283.5
584.0446,210.9
584.1252,122.4
584.2933,1168.4
584.3117,8522.4
584.4281,322.5
584.527,718.6
584.7456,255.5
584.813,158.3
585.1545,122.6
585.2449,134
585.2706,8674
585.3906,19.7
585.9235,216.6
586.2759,1233.7
586.3089,3790.2
586.841,694
586.9122,1257.8
587.012,476.2
587.0465,375.3
587.1056,18.6
588.0124,177.7
588.2406,89.7
588.3543,379.6
588.7882,171.3
588.838,2068.5
588.9298,195.3
589.1244,335.1
589.3898,78.2
589.6354,217.9
589.6898,98.4
589.9063,82.9
589.9664,714.3
590.0508,199.7
590.1065,315.6
590.1183,92
590.3221,10479.2
590.6909,118.5
590.8354,406.3
590.9239,472.1
590.9849,722
591.325,2333.1
591.5508,758.7
591.6773,165.6
592.1079,269
592.1208,303.8
592.2543,1255
592.3379,2874.2
592.446,458.9
592.6258,835.3
592.8578,8426.6
593.0813,96.2
593.2835,152.2
593.3119,22.6
593.6427,156.2
593.8217,344.4
593.8673,838.4
593.9323,370.9
594.0633,141.1
594.2154,20.8
594.3677,152.8
594.4342,18.5
594.4468,311.9
594.8552,7684.6
595.3275,397.9
595.5917,401.8
595.8131,133.4
596.3355,192.1
596.3805,319.3
596.4679,83
596.8218,88.5
596.8521,900.2
596.8685,799
597.0651,457.7
597.2105,122.1
597.4235,405.6
597.4487,4594.3
597.4592,3678.3
597.4858,12616.8
597.6985,282.7
597.7258,154.3
597.8977,97.1
597.9607,318.6
598.0403,100.7
598.0782,134.5
598.095,832.4
598.187,422.2
598.4596,1071.4
598.4725,828.3
598.4899,2064.8
598.5951,153.5
598.6674,217.2
598.8669,616.2
599.1592,137.4
599.4068,343.4
599.5017,2183.7
600.0755,472.2
600.1125,728.6
600.2798,985.7
600.4636,1075.1
600.6417,751
600.8091,207.1
601.0576,87.2
601.0839,158
601.1578,156.1
601.1653,160.9
601.2393,269.7
601.5188,24.1
601.5512,19.7
601.9283,92.2
602.0233,226
602.1246,104.5
602.2944,635.3
602.52,511.7
602.8162,373.4
602.8499,310.5
602.8651,23.4
602.8878,673.4
603.2191,495.4
603.3563,734.2
603.5328,306
603.6506,172.7
604.0231,451.1
604.0825,514.7
604.099,127.7
604.3124,752
604.3721,21.1
604.4261,282.9
604.5395,23.8
604.7269,425.6
604.8119,720.9
605.3138,433.3
605.4779,348.9
605.6007,562.3
605.9577,93.4
605.9915,19.1
606.0368,19.1
606.0684,812.1
606.2968,1714.3
606.3142,93.1
606.6888,140.3
606.7101,19.7
607.1351,105.4
607.2542,1053.2
608.0399,374.2
608.3113,528.6
608.4212,21.3
608.4657,318.3
608.6458,92.1
608.8318,2498.3
609.3533,78.8
609.6903,606.3
609.8531,85.7
610.0488,135.6
610.1134,210.7
610.3099,1511.2
610.442,217.7
610.8288,2906.5
611.2829,332.2
611.4137,240.7
611.4684,759.4
611.6621,320.2
612.1005,549.7
612.3573,288.9
612.3891,21.7
612.5921,646.4
612.7995,178.8
612.9202,921.8
613.3462,1110.2
613.4274,488.3
613.6379,398
613.7906,90
613.8887,121.8
613.9671,138.9
614.0017,110.2
614.3226,137.6
615.0011,130.6
615.1315,372.3
615.1665,139.2
615.3189,253.1
615.4205,558.2
615.4368,678.2
615.4431,825.5
615.5486,986
615.6337,163.7
615.825,82.9
615.987,324.7
616.3771,648.4
616.4105,130.9
616.4298,191.6
616.8988,838.6
617.293,179.1
617.4758,17797.5
617.6279,494.7
617.7928,528.9
618.1292,17.5
618.1936,464.1
618.3378,93.9
618.3668,797.3
618.4214,81.6
618.4796,776.3
619.0163,475.2
619.3864,19
619.4911,8339.7
619.8505,22.8
620.4942,1866.8
620.9519,731.4
620.9768,716.5
621.042,421.8
621.3782,338.8
621.4495,2035
621.4859,7082.2
621.9971,448.2
622.49,693.7
622.9834,616.1
623.136,10883.4
623.4638,729.1
623.5027,624.4
623.5532,20.8
623.871,930.6
624.139,963.8
624.4778,128.3
624.7457,86.5
624.8784,195.5
625.1083,348.4
625.1411,144.3
625.2389,492.5
625.3472,322
625.3655,142.7
625.4481,160.2
625.4855,113.3
625.5196,504.6
626.2435,339.4
626.5393,208.6
626.9911,109.1
627.5351,161.8
627.7016,232.9
627.8308,109.8
627.9676,380.3
628.3286,508.8
628.4415,91.7
628.5375,762.1
628.7403,992.9
628.849,18.8
629.1531,21138
629.3523,149.9
629.8111,239.4
629.9378,366.7
630.1567,2333.3
630.3958,430.8
630.551,428.9
630.6456,19.5
630.8456,344.1
631.116,103.4
631.1557,299.1
631.2863,662.4
631.3791,374.1
631.4213,407.8
631.6507,340.2
631.7477,309.2
631.8672,141
632.017,352.3
632.0557,286.4
632.1289,308.9
632.3548,1420.2
632.7868,120.7
633.1914,734.9
633.4756,92
633.6394,285.6
633.7516,335.7
633.9651,319.7
634.284,104.1
634.3771,511.2
634.4527,475.1
634.727,90.1
634.779,348
634.8431,2479.3
635.141,306.2
635.1532,1243
635.3381,720.8
635.4375,124.5
635.5669,414.6
635.6741,202.6
636.4689,742.2
636.6377,91
636.8398,3043.1
637.419,993
637.4386,410
637.5021,841.6
637.6541,718.6
637.9695,241.5
638.0217,875.8
638.1432,25.1
638.292,17.7
638.4532,2245.7
638.8371,783.2
638.8814,798.4
639.1956,346.5
639.3011,340
639.3685,127
639.4392,136
639.558,198.6
639.6444,319.7
639.8481,238.4
640.3115,111.9
640.6221,439.7
640.8337,596.8
640.9841,111.6
641.0502,103
641.1547,22.7
641.744,852.3
641.7869,281.8
642.0084,363.2
642.3327,831.5
643.1701,173.4
643.2415,89.7
643.4173,1161
643.4734,38.1
643.6078,103.7
643.6262,555.6
643.8027,19
644.7891,262.1
645.1182,9737.1
645.1552,315.3
645.4878,276.3
645.8633,172.6
646.108,99.7
646.1236,547.9
646.466,315
646.6964,136.8
646.7273,157.8
646.9301,933.4
646.9888,106.1
647.0935,415.6
647.2093,150
647.2592,17.7
647.4555,262.8
647.461,257.4
647.4702,269.7
647.8957,110.4
648.3363,116.4
648.734,89.2
649.1802,228.4
649.3144,111.6
649.4846,145.7
649.4939,126.4
649.5052,151.9
649.5485,621.4
649.5755,20.8
649.8786,305.4
649.9712,1064.1
650.0651,92.8
650.2923,91.1
650.4387,1384.3
650.4793,225.2
650.817,2001.2
651.0094,20.5
651.1349,38383.9
651.202,453.3
651.3672,85.8
651.4426,1014.2
651.524,433.9
652.0634,187.2
652.1389,5371.6
652.1713,22.6
652.2568,116.3
652.4674,698.7
652.5084,221.9
652.577,440.2
652.6179,158.4
652.8135,4023.7
653.2674,94.1
653.3704,109.3
653.5752,885.5
653.7153,88
654.0798,119.9
654.1986,292.9
654.2673,497.6
654.3322,594.3
654.4088,269.3
654.4782,184.6
654.6028,89.3
654.6433,573.5
654.6625,22.4
654.6979,723.8
654.8091,626.3
654.8516,147.9
654.9131,238.7
654.9286,83.3
655.6028,647.3
655.7148,163.4
655.7629,260
655.7968,448.7
655.8133,1236.7
655.901,658.5
656.6211,143.4
656.7593,216.3
656.8861,176.6
657.3928,912.6
657.8971,227.1
658.175,131.7
658.4656,962.3
658.5419,288.9
658.6076,390.8
658.8802,190.9
658.919,408
659.0816,299.1
659.1918,385.7
659.3813,142.3
660.0823,1719.1
660.2724,214.8
660.5013,167.3
661.0661,97
661.0828,3887.4
661.4678,546.8
661.6195,121.8
661.8512,827.1
662.0982,199.1
662.3012,308.8
662.4079,109
662.593,771.2
662.8417,635.8
662.8847,848.8
662.9294,155.8
662.9945,548.8
663.3919,21.7
663.4543,454.6
663.6413,91.6
663.8812,438.6
663.9712,95.1
664.1296,184.1
664.2845,436.8
664.3066,917.3
664.469,2429.6
664.5886,160.2
664.6104,118.9
664.8887,140.1
665.0042,122.5
665.0083,130.9
665.0163,105.6
665.3558,217.2
665.5599,87.6
665.59,93.1
665.6411,111.9
666.1247,18.7
666.2043,320
666.3166,145.2
666.4823,5626.1
666.8667,282.4
666.9251,105.8
667.0701,823.7
667.0998,21663.8
667.4193,481.2
667.4553,294.2
667.4865,961.3
667.7742,779.8
668.1048,806.5
668.5808,663.5
668.7121,645.9
668.7886,402.5
668.9581,308.3
668.9774,625.1
669.1443,197.3
669.2591,215.3
669.318,17.6
669.831,81.8
669.9415,80.3
670.046,874.3
670.1846,97.6
670.3235,149.6
670.3303,228
670.4204,432
670.7096,19.3
671.0208,101.3
671.2574,108.1
671.5768,112.4
672.4214,3239.3
672.7059,479.2
672.7961,26.9
672.9288,85.8
673.117,59099.1
673.2364,428.9
673.2675,26.4
673.4602,158.4
673.5284,2814.8
673.6903,225.9
673.8123,387.7
673.9282,989.7
674.1203,10491.4
674.4779,220.6
674.6671,19.8
675.1221,622.5
675.1546,472
675.2159,204.7
675.544,20237.7
675.9767,548.4
676.0473,3453.1
676.227,794.1
676.3641,143.5
676.5478,7939.3
676.7722,23.5
677.0538,288.5
677.1901,575.3
677.4264,788.3
677.6393,184
677.7305,22.6
678.0717,305.3
678.3048,99.3
678.7408,106.4
678.897,276.5
679.4252,108.5
679.5894,99.5
679.6072,146.6
680.0647,275.4
680.1326,87
680.1593,223.4
680.3392,203.7
680.5776,121.8
680.6344,19.6
681.2484,602
681.4536,121.7
681.4771,95.1
682.0645,8932.1
682.106,561.4
682.1351,129.2
682.3192,530.8
682.5033,224.8
683.065,4199.6
683.4098,143
683.4526,1042.7
683.6113,186.5
683.9303,773.5
684.0697,99.1
684.3482,233.2
684.453,1778.3
684.5151,224.9
684.6077,202.1
684.7605,20.5
685.0709,139.5
685.4359,6155.4
685.5491,428.6
685.7762,326.2
685.8925,291
686.0023,432.5
686.056,94.9
686.2765,24.3
686.4396,2592
686.8766,103.1
687.0041,262.7
687.0568,151.3
687.1088,19.4
687.1383,20.9
687.4497,226.1
687.6219,216.5
687.7401,100.4
688.4267,89.3
688.8115,85.9
689.0815,17904.1
689.0911,17847.5
689.5598,1455
689.6993,82.6
689.8542,282.6
690.0862,1172.4
690.0919,1015.2
690.3553,236.6
690.3921,236.5
690.413,214.9
690.4775,97.7
690.4983,246.7
690.5607,993.9
690.7531,855.1
691.0882,373.4
691.4901,846.8
691.5852,393.5
692.0151,117.1
692.0357,888.5
692.1113,320.6
692.8011,493.9
693.1808,20.1
693.3409,166.1
693.3836,233.1
693.6179,522
694.1247,78.1
694.5036,953.1
694.6202,119.7
694.7991,544.4
694.8354,354.2
694.9282,98.6
694.999,27
695.0987,42175.9
695.2534,238.8
695.3887,96.9
695.4656,877.4
695.5099,1013.1
695.7747,197.3
695.8005,513.5
696.1026,8812.3
696.1945,83
696.2865,150.1
696.3533,1055.8
696.4666,453.9
696.5114,948.9
696.929,350.3
697.0817,247
697.5262,26413.7
697.8355,19.1
697.9928,19.2
698.0286,2354.9
698.0842,23
698.1304,162.5
698.4459,139.3
698.4969,161.8
698.5296,9638.7
699.0486,98.5
699.1017,435.6
699.1359,19.7
699.1574,182.4
699.1814,213.9
699.2806,115.1
699.4969,557.6
699.5842,130.1
700.1855,766.9
700.4187,910.1
700.6993,102.4
701.1515,113.1
701.3667,530.9
701.4099,716.5
701.5599,40923.5
701.8324,90.6
701.9238,428.1
702.0917,347
702.099,519.3
702.1073,486.1
702.1377,148.9
702.256,197.1
702.2839,595.4
702.342,862.1
702.5633,16339.2
702.7066,428.4
703.2174,144.4
703.5756,104136.8
703.9534,877.8
704.0463,7733.6
704.4486,1753.4
704.5238,1076.3
704.548,559.5
704.579,37193.2
704.9975,404.8
705.0553,2705.9
705.2509,19.7
705.3359,164.4
705.4159,116.3
705.5825,3862.2
706.0498,1030.6
706.1408,228.1
706.5386,3327.8
706.7203,150.4
706.947,373.2
707.0531,334.7
707.4081,131.7
707.6047,94.1
707.7252,728.6
708.0381,417.3
708.2374,85.1
708.6146,118.2
708.8208,503
709.0414,142.3
709.091,264.9
709.1602,338
709.4806,174.3
709.5152,531.9
709.8486,142.1
709.8841,18.1
710.0108,704.5
710.2902,172.7
710.5892,222
710.7726,1029.2
711.0735,17718.9
711.1214,424
711.5418,6323.9
711.7497,153.9
712.0648,422
712.0783,1598.3
712.4539,1080.4
712.5452,1177.8
712.6756,839.3
712.768,341.6
713.0601,878.5
713.1488,21.5
713.2459,434.8
713.5011,2880.6
713.612,292
713.71,120.2
714.0014,93.4
714.1855,83
714.2131,215.5
714.3658,238.6
714.4059,869.7
714.5037,994.5
715.1461,116.6
715.4931,352.8
715.6,207.3
715.7442,889.8
715.8467,147.5
715.873,662.8
716.0166,99.1
716.2135,756.1
716.4977,169.1
716.5296,834.6
716.9501,256.6
716.973,94
717.0809,21712.9
717.295,430.5
717.5889,158
718.0836,2058.1
718.1486,17.4
718.2321,265.4
718.3924,264.7
718.4171,589.2
718.5745,406.8
719.0783,110.8
719.2688,209.7
719.4673,1085
719.8076,761.5
720.0218,2251.9
720.1485,219.2
720.3252,641.2
720.5533,681.3
720.9189,131.4
721.0013,257.5
721.2911,300.6
721.4784,66450
721.6544,826.3
722.0014,257.8
722.0345,340.1
722.4817,23767.7
722.9096,562.6
723.0213,84.9
723.0847,255.8
723.4941,13027.7
723.5417,40783.6
723.7023,111.2
723.9713,370.9
724.498,2812.7
724.5453,14141.8
724.7925,390.8
724.989,471.1
725.5575,95089.9
725.7647,169.6
725.8708,483.7
726.0117,909.6
726.028,3738.1
726.1775,148.8
726.5039,1741.4
726.5607,38618.3
726.9529,78.3
727.0351,3616.1
727.3315,118.4
727.5632,2917.2
727.691,414.2
727.8988,20.2
727.9471,92
727.9686,20.6
728.5212,5198.5
728.6879,868.6
728.7814,679.7
728.9818,122.1
729.591,6924.3
729.6869,446
729.9515,738
730.2138,17.8
730.2989,884
730.4272,94.8
730.5389,17782.7
730.5955,1944.9
730.6421,18.5
730.7068,212.3
731.2211,97.1
731.2917,101.6
731.5425,4240.7
731.6075,8209.9
731.6362,156.7
731.6916,327.5
732.2021,818.5
732.3876,381.9
732.4035,20.2
732.5545,58642.3
732.6489,122.1
732.889,856.8
733.0048,427.9
733.0458,9743.2
733.0551,10321.7
733.1187,879.8
733.1444,163.3
733.3029,225.6
733.4176,417.1
733.5579,23149.2
734.0511,165.4
734.1122,123.6
734.4434,187.7
734.5286,98.7
734.5703,6731.5
734.709,18.7
735.0089,470
735.0513,141.2
735.2361,379.4
735.5742,1039.1
735.7689,156.7
735.845,227.6
735.9864,273.5
736.0727,98.7
736.6884,932.4
736.9151,641.8
737.1366,240.2
737.4176,20.9
737.4528,15962.7
738.4553,2599.1
738.5597,452.9
738.7896,335
739.0628,15180.4
739.0968,415.9
739.4408,218.1
739.4701,1132.8
739.5157,4810.5
739.5473,248.6
739.7776,791.8
739.8227,96.7
740.0651,698.7
740.1053,333.8
740.5033,130.3
740.5209,1127.2
740.6368,928.3
741.1101,472.9
741.2472,227.5
741.276,254.2
741.5318,11387.1
741.8028,246.9
741.8651,137.6
741.9472,190.9
742.0035,582.5
742.1044,345.4
742.3517,567.3
742.5349,5636.1
742.5748,10992.6
742.6636,1662.8
742.7116,223.1
743.2383,1120.9
743.4604,2079.8
743.5787,1593.2
743.603,423.7
743.6555,146.9
743.6974,92.7
743.8832,330.9
743.9702,702.9
743.9964,111.2
744.0165,168.2
744.1134,277
744.2947,256.7
744.5303,939.3
744.5551,4501.7
744.5919,3190.3
745.212,124.8
745.3875,195.1
745.4367,104.6
745.4783,32509.9
745.5595,1933.7
745.591,1792.6
745.681,857.4
745.7059,19.4
745.7924,353.1
745.9304,93.4
745.952,1007.2
745.9792,907.8
746.4255,354.2
746.4482,83.1
746.4815,10618.6
746.5708,3535.4
746.6068,1690
746.8726,87.8
747.0778,19.3
747.4945,12362.6
748.0106,1841.7
748.4978,5597.1
748.7229,184.5
748.997,102.7
749.0202,1990.6
749.2567,225.6
749.5099,5465.6
749.5406,201.3
749.6717,19.5
749.8259,20.5
749.9084,565.3
750.2129,242.6
750.5128,802.2
750.5471,143.1
750.8385,84.1
750.9522,709.6
751.1694,149.3
751.3399,316.3
751.5435,79.6
751.5743,5735.8
751.9474,154
752.19,558.5
752.5206,15176.1
752.5773,2017.8
752.6633,112.2
753.0327,141.1
753.5242,3830.6
753.5545,93.3
753.5914,2022.7
753.6778,141
753.6987,662.1
753.9909,89.8
754.2728,345.6
754.4593,147.9
754.537,49220.9
754.6422,104.7
754.7575,338.1
755.0004,766.5
755.0379,7296.3
755.2816,398.4
755.346,790.4
755.5401,16575.8
755.6942,695.5
755.7914,218.6
756.0221,110
756.5544,59171.9
756.5892,156.2
756.6638,250.5
756.7765,439.5
756.8561,401.7
757.1782,921.5
757.4915,113
757.5578,24164.7
757.6209,213.3
757.7135,229.2
757.8411,293.6
757.8755,226.6
757.974,142.1
758.1992,1032.5
758.3594,300.5
758.4713,95
758.5703,1265566
758.7079,503.3
758.7795,110.7
758.9292,175.5
758.9811,190.8
759.099,128.4
759.2141,374.3
759.5736,549782.9
759.64,643.9
759.8292,165.4
760.0437,22.1
760.4402,500.2
760.587,336585.5
760.6406,504.4
760.7633,322.1
761.0447,5407.8
761.1902,229.1
761.2801,90.1
761.452,8471.6
761.5897,166280.3
761.9791,154.6
762.0452,203.2
762.0933,322.9
762.439,2302.9
762.4935,92.3
762.5926,36588.6
763.1602,131.7
763.2076,188.3
763.3658,944.5
763.4076,892.1
763.4602,568.6
763.5955,3497.1
763.7081,220.7
763.9361,705.1
763.9815,297.2
764.1579,221.8
764.5574,4622.4
764.6596,548.9
765.001,164.5
765.0914,128
765.1554,91.3
765.2582,131.3
765.4878,117.2
765.6129,18.7
765.9374,618.9
765.9581,186
766.0098,219.9
766.2059,564.1
766.4314,612.2
766.5371,3140.8
766.5751,29566.3
766.8594,190.3
767.201,199.8
767.3286,101.8
767.5336,1348.3
767.5788,10078.9
767.6497,397.5
767.9043,286.2
767.9867,814.3
768.128,311.7
768.1476,372
768.3822,21.5
768.5542,2128
768.591,34841.6
768.8842,421.5
768.9362,85.4
768.9889,320.2
769.4799,2345.7
769.5582,1404.8
769.5947,11343
770.3759,118.5
770.4764,1187.9
770.5106,6879.4
770.5716,1840.5
770.6085,3222.5
770.9928,2421.2
771.0784,411.2
771.4929,1868.4
771.5119,1685.3
771.5794,21.4
771.6104,504.7
772.0265,118
772.3781,831.6
772.5611,377.1
772.5858,13613.1
772.6331,593.6
772.9346,99.2
773.0086,104.7
773.5104,935.5
773.5892,3460.1
774.0973,376
774.4092,175.9
774.4483,23.3
774.5239,909.3
774.6023,1001.4
775.3059,202.9
775.4594,410
775.5176,261.8
775.8718,230.8
775.8781,251.1
775.9455,18.7
776.0873,237.7
776.1949,171.4
776.2481,201.6
776.4911,106.7
776.5212,4526.2
776.5941,150.9
776.6144,124.7
776.6707,348.3
776.7735,140.2
776.8314,757.3
776.9331,116.7
777.0097,5261.2
777.0988,140.9
777.3486,234.4
777.3794,151.2
777.5424,1388.4
777.5889,78.9
777.7028,1095
777.7418,1743.7
777.9892,284.3
778.0212,235.7
778.2525,546.8
778.2843,460.6
778.3169,128.9
778.4896,90
778.5368,40150.4
779.5401,19290.5
780.1662,181.6
780.2814,21.8
780.5523,919113.1
780.5862,554.9
780.7976,131.5
781.2154,516.2
781.3415,946.5
781.5557,410598
781.7291,21.4
782.1349,118.9
782.305,755.5
782.3395,121.1
782.57,751807
782.7538,124.6
783.0274,6813.7
783.3693,19.7
783.5152,166.3
783.5732,342539.4
784.0496,95.6
784.1157,511.9
784.1551,92.7
784.4853,511.7
784.5867,358579.5
785.0585,201.7
785.2423,117.1
785.4682,794.1
785.4958,816.4
785.5896,174618.7
785.653,4109.3
785.8336,18.9
786.2195,163
786.6023,272830.8
786.6551,528
786.6768,614.6
786.9254,782.2
787.6051,131157.4
787.6682,1278.8
788.0724,93.1
788.1738,347.9
788.5113,1329.5
788.5571,11753.8
788.6057,23308.6
788.6717,150.4
788.7293,478.7
789.0761,150.9
789.2579,346.8
789.5613,3334.8
789.6224,5581.7
789.8277,225.1
790.4932,710.6
790.5738,17722.2
790.6223,810.9
791.0481,688.8
791.0717,431.9
791.097,877.7
791.4534,317.7
791.543,397.7
791.5745,4289.9
791.6566,93.8
791.817,366.5
791.9297,111.2
792.5542,406.1
792.5905,9171.9
793.0459,98.4
793.3039,205.6
793.5795,1033.9
793.5933,1447.4
793.9031,457.6
794.5115,5740
794.569,7210.3
794.6069,33260.7
795.0572,791.6
795.5136,1069.7
795.5704,3558.2
795.6102,11868.3
796.0767,116.5
796.1375,20.4
796.3068,21
796.5262,183070.6
796.5857,4020.7
796.6224,2087.7
796.9606,129.4
797.2571,175.5
797.3022,441.1
797.3648,639.4
797.4688,146
797.5295,86367.4
797.5876,887.5
797.6263,552.5
797.759,1672
797.8368,228.1
798.1613,349.9
798.5433,41245.7
798.6059,1329.9
798.6474,103.9
799.0014,2117
799.5456,20457.8
799.6111,148.6
799.8296,550.8
800.2756,991.8
800.5221,1045.4
800.5496,938.9
800.6775,224.8
801.029,698.7
801.3046,188.3
801.3508,143.7
801.7757,116
802.1452,942.1
802.2477,693.1
802.3005,20
802.4758,437.9
802.5363,43796.7
802.6062,1065.9
802.6719,700.5
802.7698,1404.8
803.54,17340.4
803.7296,19.1
804.1051,865.2
804.5522,390046.2
804.7064,536.3
804.8901,294.3
805.0636,503.3
805.0922,814.9
805.1537,824.2
805.3795,20.8
805.5555,180314.1
806.0228,459.5
806.35,117.7
806.4026,969.6
806.5694,344039.8
807.5723,170918.9
808.0198,125.5
808.5853,236473.6
808.7201,253.3
808.9345,204.4
809.5882,123008.5
809.6517,148.2
810.2138,89.5
810.6023,149031
810.6694,255.9
810.7336,237.1
810.9146,526.2
811.6049,75367.9
811.6693,5841
812.6193,33156.6
812.671,482.9
812.8449,224.4
813.5792,714.9
813.6211,16797.4
813.6853,4638.4
814.032,95.2
814.1191,247.9
814.5729,2030.3
814.6217,522
814.6885,1820
814.7163,363.8
815.0521,734.4
815.642,197.5
815.785,671
815.9178,234.1
816.2246,149.6
816.2661,1484.5
816.311,1545.9
816.589,13043.4
816.621,604.2
816.9174,98.4
816.9435,122.1
817.1121,78.6
817.591,3955.3
817.9291,88.6
818.2136,1062.2
818.5097,9012.1
818.5658,829.9
818.6051,960.5
818.7225,381.3
819.1949,332.5
819.4843,129.3
820.4875,119.5
820.526,91143.6
820.5862,797.1
820.6194,603.6
820.7359,126.8
820.901,20
821.0727,85.2
821.5014,639.5
821.5295,37328.7
821.5619,118
821.7078,188.1
821.9636,114.2
822.1472,135.2
822.4273,1015
822.5429,43386.6
822.6507,130.5
823.4611,1007.9
823.5451,19353.6
823.5986,89.1
824.2956,326.9
824.5583,29148.5
825.153,641.4
825.5609,8642.3
825.9791,429.3
826.0755,100.2
826.2191,450.9
826.3665,96.1
826.4404,1057.2
826.5713,786.5
826.647,184.7
826.7886,502.6
827.005,1912.7
827.5696,1357.3
828.5522,90043.3
828.7351,94.4
829.0792,196.9
829.3224,533
829.4035,262.7
829.5552,44404.9
829.6967,1774.5
829.7244,968.5
829.8254,696.2
830.0719,1578
830.1438,659.3
830.2603,864.8
830.2967,163.4
830.5689,59643.2
830.6961,128.9
831.3336,95.3
831.5715,34029.5
831.8817,21.1
832.0025,233.4
832.3933,104.3
832.4282,109.9
832.4475,643.6
832.5843,82958.1
832.6392,222.2
833.0565,235.9
833.5874,36552.2
833.6524,265.4
834.1833,614.1
834.6018,35427.2
834.8465,328.7
835.6046,17158.4
835.6376,827.2
835.6668,721.9
835.7348,1592.3
835.771,95
835.9267,346.6
835.9975,494.3
836.0538,18.6
836.4636,100
836.5009,97.7
836.6198,3631.5
836.9705,716.8
837.2262,526.6
837.27,503.8
837.6211,1175
837.6774,118.3
837.8846,96.4
838.5082,2560.8
838.5507,387
839.0247,566.6
839.5582,193.2
839.5896,408.1
840.0162,258.6
840.3356,1400.8
840.3859,307.3
840.5848,1654
840.9138,726.2
840.9353,101
841.5487,589.3
841.6564,96.4
841.9007,433.2
842.2003,644
842.2998,2165.9
842.5723,375.8
843.0926,20.9
844.0194,893.6
844.0485,142.4
844.079,464.8
844.1009,627.5
844.5251,12216.5
844.6029,143.9
844.7912,538.2
844.8804,980.3
845.0511,526.8
845.2169,140.2
845.2939,123
845.5292,3728
845.6671,919.4
845.81,21.2
846.5427,7964.3
846.8493,488
847.0233,459.8
847.3943,196.1
847.5441,3891.5
848.2283,18
848.4375,3944.6
848.5584,14330.5
848.6998,603.3
848.8489,35.7
848.9582,511.4
848.9942,110.7
849.1331,440.4
849.3279,482.2
849.3452,449.4
849.5595,2263.3
850.1031,439.8
850.1454,461.6
850.5627,377.8
850.7571,441.5
851.2446,924.1
851.3152,87.8
851.5805,654.7
851.6151,83
851.6725,513.3
851.7091,2817
851.8292,119.3
852.0564,431.8
852.0762,156.4
852.2552,674.5
852.3424,922.9
852.3894,416.8
852.518,546
853.0827,395.3
853.308,148.3
853.4549,534.5
853.7915,172.5
853.826,993.7
854.5637,179.2
855.0707,119.3
855.3515,638.2
855.6541,21.2
855.7832,461
855.9053,106.8
856.0052,952.4
856.1088,979.4
856.1225,1092.8
856.1626,676.8
856.3757,18.4
856.446,87.4
856.5843,3727.7
857.1123,253.6
857.23,530.4
857.5888,507.6
857.7438,538.1
857.8877,481
858.2753,94.5
858.4054,1341
858.5973,1077.6
859.058,221.9
859.6377,902.5
859.6622,1063.6
859.8493,127.9
859.9548,410.4
860.1909,21.3
860.2787,981.2
860.3397,485.8
860.6245,846.3
861.6564,245
861.7321,286.2
862.4367,423.1
862.772,930.6
862.8968,21.9
862.9384,291.6
863.0254,113.7
863.2348,362.1
863.2554,282.1
863.9619,138.5
864.1888,152.9
864.2198,159.8
864.5288,494.1
864.5817,90.1
864.7628,306.6
865.7051,91.1
866.0365,684
866.3401,738.9
866.4663,212.1
866.667,132
867.3626,477.6
867.9155,491.8
869.0253,1073.6
869.2518,626.7
869.4082,224.5
869.525,1491.5
869.5614,605.9
869.5985,674.8
869.6531,197.1
869.6962,1541.8
869.7347,1494.4
869.7842,2827.7
869.8342,5341.9
869.8566,5285.8
869.8723,5440.9
869.8987,4289.5
869.9465,1065.7
869.9789,1443.1
870.0017,1034.7
870.0094,1030.6
870.0326,1240
870.0882,755.8
870.3956,745.9
871.0267,601.8
871.1727,23.3
871.7128,19.6
872.3702,515.8
872.562,126.1
872.7737,343.6
872.9793,881.6
873.7278,383.6
873.8404,767.4
873.8739,307.9
874.1354,103.2
874.2406,2207.6
874.5816,453.7
874.8677,365.1
875.7356,937.3
875.8984,81.3
875.9474,964.8
876.3802,16.7
876.3954,19.6
876.595,222.1
876.7256,715.9
876.7846,165.9
877.8586,84.6
877.8893,20.6
878.3312,22.2
878.5612,478.7
878.5919,109.6
878.9663,21.3
879.15,106.8
879.4907,556.8
879.5978,351.9
879.8644,19.3
880.1751,182.6
880.3861,743.6
880.7102,540.6
880.7753,149.5
880.9312,163.9
880.9641,571.4
881.7527,601.6
882.2574,250.8
882.2999,394.5
882.4917,110.1
882.6519,314.3
882.7707,1021.8
883.0977,885.9
883.1305,342.6
883.3099,333
883.5362,681.6
884.2577,378.2
884.326,532.5
884.441,81.8
885.0402,191.4
885.3451,19.2
885.4659,1786.7
885.6607,747.5
886.0897,696.3
886.3686,1074.6
886.4293,791.8
886.4505,90.7
887.6007,104
888.0647,422.3
888.5169,223.7
890.2109,767
890.3343,720.8
890.6578,956.9
891.129,676.6
891.1491,520.6
891.2239,117.7
891.3916,1235
891.8162,396.8
891.9978,689.1
892.4972,193.4
892.7085,127.8
892.7402,120.5
893.3852,372
893.7504,816.1
894.2307,483.6
894.7557,492.7
894.791,17
894.9342,160.6
895.3703,26.6
895.5326,439.8
895.8341,1124.3
895.9294,90.3
896.0406,123.8
896.1265,1180.7
896.2034,685.7
896.3774,803.8
897.0226,854.4
898.3489,266.1
899.089,364.3
899.6275,304.3
899.6907,87.7
899.8255,804.6
899.881,540.3
899.9761,134.5
900.0819,120.1
900.1611,327.5
900.265,885.4
900.4739,665.8
900.5189,375.4
900.6483,84.1
900.9312,459.5
901.2796,666.6
901.6849,211.3
901.932,912.4
901.9654,666.4
902.0191,3233.3
902.3048,21
902.4608,311.4
902.485,25.2
902.9556,365.5
903.1428,111.1
903.1937,108.9
903.3135,463.9
903.4674,174.8
903.9589,94.8
904.4554,263.5
905.762,211.5
905.8647,79.1
906.07,246.9
906.4475,114.2
906.6006,1813.4
907.0452,154.4
907.1255,980.2
907.369,181.7
907.6179,157.9
907.9119,454.9
907.9637,1017.9
908.0932,420.6
908.369,535.9
908.6256,614.9
909.0138,106.9
909.3644,583.6
909.6342,20.2
909.6827,19.5
909.9251,351
910.1797,1096.1
910.5169,1269.9
911.0763,541.4
911.4845,20.8
912.1596,1082.1
912.2209,80.2
912.8604,84
913.0091,141.4
913.0659,507.9
913.7423,123.5
913.7876,351.5
913.8985,613.1
914.0358,181.7
914.0656,294
914.2267,975.9
914.4076,567.8
914.572,147.2
915.476,21.6
915.7307,1642.8
916.7061,149.2
916.9943,506.6
917.0723,478.7
917.3549,333.8
918.6009,331.3
919.3001,1048.5
919.5466,644.8
919.6541,365.2
919.9208,430.7
920.0046,573
920.6642,150.9
921.0464,141.2
921.7002,342.9
921.8353,88.7
922.0127,149.2
922.2127,541.4
922.3058,1157.8
923.4736,1480.5
923.647,654
923.9487,228.8
923.9881,225.5
924.4455,743.8
924.4893,97.1
924.5607,1960.8
924.6823,263.8
924.9663,547.6
925.2116,248
925.2649,614.5
925.4132,148.4
925.5888,963.5
925.8427,1050.4
926.4717,149.6
926.8346,2095.2
927.3126,591.3
927.6324,683.7
927.7697,864.3
927.876,95.3
927.9327,607.8
928.5202,2411.8
928.9544,315.6
929.5493,321.3
929.6101,455.7
929.7457,292.6
930.1148,504
931.2482,126.8
931.4141,102.6
931.5699,245.4
931.8649,347.3
932.0031,81.9
932.0745,347.4
932.7224,395.9
932.8633,132.4
933.1772,217.5
933.2946,456
933.7404,270.6
934.4629,520
934.49,433.9
934.913,692.4
934.9389,618.4
935.0152,115.5
935.0869,217.6
935.1662,130.8
935.8532,194.3
935.9076,2301.4
936.545,80.3
936.7565,799.6
936.9121,204
936.9724,96.5
937.1798,20.4
937.3627,638.3
937.9558,99.7
938.0177,93.6
938.1854,289
938.2893,480.5
938.4807,315
939.1726,309.1
939.3664,156.7
939.7292,106.3
939.815,109.8
939.831,209.8
940.1964,365.4
940.6322,554.6
940.9641,502.7
941.7997,159.5
942.1596,18.9
942.4201,718
943.2066,399.9
943.3891,958.8
943.5701,198.1
944.0614,400.8
944.1168,172.5
944.2548,808.4
945.0188,1273.5
945.217,102.8
945.5598,309.6
945.6521,949.4
945.8081,199.3
946.0487,87
946.129,773.7
946.7533,425.9
947.401,1021.4
947.5465,811.3
947.9142,290.4
948.0129,91.1
948.0813,1158.3
948.3699,1509.3
948.4923,988.4
948.5947,219.1
948.6157,87.9
949.0976,24.1
949.3057,1698.3
949.707,177.6
949.7472,524.6
949.9632,942.2
950.128,103
950.1711,162.6
950.2497,89.7
950.5083,21.6
951.1936,1139.2
951.5535,621.6
951.5742,674.9
951.7968,19.6
952.7876,1022.1
952.8118,505.8
953.6748,255.1
953.9598,957.9
954.0972,365.3
954.2839,139.1
954.8735,448.6
955.2456,1226.4
955.4611,988.5
955.7937,356.9
955.9548,22.7
956.0636,679.6
956.3137,159.6
956.4025,316.3
956.4624,19.8
956.8518,235.7
956.8894,217.2
957.3109,774.1
957.352,410.2
957.5089,563.9
957.614,378.1
957.6495,105.3
957.8048,711.1
958.6719,475.5
958.8893,883.5
960.1074,397.7
960.4766,122.5
960.5646,164.6
960.8898,155.6
961.1231,154.8
961.4646,18.7
961.657,285.2
961.8136,244.5
961.9295,1518.5
962.074,18.6
962.2053,114.2
962.2841,219.4
962.9201,398.2
963.2134,795
964.5628,116.4
964.6018,102.1
964.8178,944.9
965.2393,299.1
965.271,334
965.3032,705.9
965.3441,1530.4
965.3783,1258
965.5081,942.5
965.8635,21.6
965.9207,388.3
966.5713,1009.8
967.2385,1229.1
967.5385,1856.4
967.7231,858.7
967.7863,284.8
967.817,24.8
967.8704,122.2
967.9331,161.4
968.147,166.2
968.2255,598.1
968.5578,157.6
968.9363,978.1
969.2123,318.5
969.2289,339.9
969.2357,346
969.5093,991.2
969.8126,515.2
970.1909,534.6
970.2294,19.5
970.7394,835.9
971.105,866.7
971.6965,461.3
972.1949,297.8
972.4882,20.8
972.7692,21.9
972.8577,238.8
973.4301,163.6
973.995,454.7
974.0672,135.1
974.6121,279
974.6531,19.8
975.3098,420.6
975.3673,120.6
976.1793,95.9
976.2259,133.2
976.7675,1987.5
976.9287,1513.7
977.0497,957.1
977.7076,757.7
978.4454,18.8
979.0709,159.1
979.1587,132.1
979.2036,97.2
979.5506,475
979.704,91.5
979.7546,822.5
979.8128,709.9
979.8337,122.8
980.181,176.7
980.8898,396.1
981.0571,236.2
981.191,786.8
982.4939,109.2
983.1452,96.4
983.4522,1062.4
983.6795,21.5
984.1577,693.8
984.5078,79.3
984.8675,99.2
985.2319,108.5
985.4351,638.1
985.4882,143.1
985.812,127.6
986.4329,394.2
987.3292,161.1
987.6995,1196.4
987.7941,410.9
987.8988,171.5
988.0271,881.6
988.1058,382.4
988.5987,951
990.7129,18.7
990.8571,669
991.4118,18.1
991.5507,20.6
991.6723,985.1
992.2529,1591.3
993.4519,756.4
993.4812,192.5
993.526,1990
993.6669,1287
994.2989,506.8
994.4964,108.7
994.8199,437.2
994.9481,348.9
995.4046,98
995.5031,191
995.606,598.9
995.7638,369.8
996.4266,78.1
996.4569,433.4
996.6512,155.2
996.6944,801.7
997.2634,217
997.5965,434.7
997.8947,95.7
998.3258,783.1
998.8158,666.7
999.0391,471.6
999.9221,23.5
