SPECTRUM - MS,
477.RAW,
FTMS + p ESI Full ms [50.00-1000.00],
Scan #: 1-40,
RT: 0.01-1.97,
AV: 40,
m/z,Intensity

50.001,277.9
50.0083,46.2
50.0093,185.3
50.014,79.7
50.017,71.1
50.0245,53.9
50.0463,68.6
50.0582,921.5
50.062,323.7
50.0651,106.9
50.0674,67
50.0793,365.2
50.0834,69
50.0867,113.9
50.1009,235.5
50.1386,311.5
50.1448,245.1
50.1626,278
50.1645,110.2
50.1657,67.3
50.1902,106.6
50.1924,220.5
50.2189,103.5
50.2216,145.8
50.2259,17.5
50.2346,89.7
50.2382,234.8
50.2522,19
50.2628,299.9
50.2738,17
50.3381,70.6
50.3646,545.8
50.3771,105.4
50.3828,502.3
50.3872,83.8
50.3946,57.5
50.4059,766.9
50.4164,63.5
50.4185,546.4
50.4225,79
50.4305,600.5
50.4343,141.6
50.4484,128.7
50.4547,202.4
50.4579,98.3
50.4641,149.4
50.4731,55.4
50.49,88.8
50.4992,352.5
50.5067,139.5
50.5144,139.1
50.5345,106.8
50.5527,378.3
50.5675,650.3
50.5834,17.2
50.5887,111.6
50.6127,312.1
50.63,198.3
50.6313,19.4
50.6372,347.6
50.6377,60.2
50.6511,517.8
50.6576,101
50.6613,218
50.6622,100.5
50.6725,202.1
50.6805,133.7
50.6814,323.5
50.6833,325
50.6851,636.6
50.6867,104.1
50.6893,77.1
50.6936,106.7
50.7125,304.7
50.7135,99.2
50.7406,105
50.7722,128.4
50.7754,356.7
50.7891,17.5
50.8115,16.2
50.8124,15.6
50.8172,725.6
50.8267,182.4
50.8327,165.6
50.8427,79.6
50.8489,497.7
50.8659,316.3
50.8737,509.4
50.8902,117.1
50.8909,49.2
50.9172,64.4
50.9176,233.7
50.9235,186.7
50.9245,117.7
50.9419,58.7
50.9448,423.4
50.9468,86.8
50.9541,60
50.9621,99.6
50.9689,17.3
51.0221,26.2
51.0734,130.1
51.0966,205.5
51.1088,322.6
51.1123,111.8
51.1145,198.8
51.1183,386.8
51.1278,60.5
51.1353,70.5
51.1444,82.5
51.1474,66.9
51.1646,69.2
51.1688,209.8
51.1994,479.4
51.2002,54.3
51.2139,83.2
51.217,77.4
51.2358,471
51.2412,868.8
51.2472,86.7
51.2553,272.2
51.2729,77
51.2917,292
51.294,70
51.2941,91.1
51.2942,89.7
51.3255,207.6
51.3442,107.7
51.3457,60
51.3473,645.3
51.351,386.7
51.354,310.7
51.3654,72.9
51.3712,57.2
51.381,200.3
51.4114,71.4
51.422,393
51.444,131.6
51.4494,219.8
51.4675,442.3
51.472,605.3
51.4731,104.1
51.4864,601.6
51.5016,249.6
51.516,183.2
51.5176,18
51.5251,61.9
51.5487,176.7
51.5667,137.9
51.5687,235.5
51.5748,188
51.5985,239.4
51.6045,310.8
51.6057,95.7
51.6151,58.4
51.6309,209.6
51.6314,18
51.633,83.7
51.644,92.5
51.6563,323.8
51.6647,115.4
51.6827,344.3
51.7068,65.6
51.7204,190.6
51.7382,68.8
51.7428,70.1
51.7826,170.9
51.7868,142.6
51.7943,360.5
51.7965,796.2
51.7989,377.5
51.8041,76.4
51.8148,365
51.8244,168
51.8249,689.2
51.8288,21.3
51.8419,19.6
51.846,66.3
51.8491,50.8
51.8575,91.4
51.8708,522
51.8771,396
51.8911,174.7
51.8995,58.9
51.9043,116.8
51.9061,80.1
51.9071,69.6
51.9147,59.7
51.9414,79.9
51.9473,68.4
51.9526,147.7
51.9534,722.7
51.9619,64.5
51.9673,969.7
51.9727,69.4
51.9792,256.5
51.9922,609.6
52.0007,108.1
52.0066,56.5
52.007,66.3
52.0102,273.7
52.0131,216.2
52.0195,197.4
52.046,723.4
52.0563,323.4
52.0588,610.2
52.0632,113
52.0762,155
52.093,417.3
52.1067,476.1
52.1097,726.4
52.1175,18.4
52.122,289.9
52.1348,111.7
52.1385,112.8
52.1447,179.6
52.1545,171.7
52.1636,142.4
52.1661,88
52.1781,119
52.2104,138.8
52.2117,59.4
52.2189,108.6
52.2287,18
52.2398,229.1
52.2437,880.3
52.2615,278.2
52.2783,22.9
52.2983,71.8
52.3124,201.5
52.3165,108.2
52.3221,157.2
52.3259,72.7
52.3393,93.8
52.3435,243.9
52.3557,149.5
52.3591,130.4
52.3597,120.5
52.3714,199.1
52.3761,120.3
52.3882,101.1
52.389,80.3
52.3938,131.3
52.4189,142.3
52.4278,19.3
52.4397,418.4
52.4402,74.3
52.4412,158.9
52.4492,216.9
52.459,99.2
52.4759,250.5
52.4924,52.1
52.4948,103.2
52.5373,62.8
52.5413,112.5
52.5432,122.7
52.5585,57.1
52.5608,45.9
52.5629,43.7
52.5693,107.4
52.5743,164
52.575,99.2
52.5769,172.4
52.5902,222.8
52.5924,15.9
52.6171,96.9
52.6236,174.1
52.662,693.2
52.6809,161
52.6887,190.4
52.6898,106.2
52.7286,90.7
52.7339,17.5
52.7505,93.8
52.7579,112
52.7788,388.6
52.7817,98.8
52.7848,381.8
52.802,428.9
52.8029,3439.2
52.8036,509.7
52.8046,1070.3
52.8061,1937.8
52.8072,924.5
52.8087,121.7
52.8337,256.6
52.8369,191.7
52.8414,59.9
52.8471,478.1
52.8488,265.5
52.8551,612.3
52.8586,61.2
52.8635,60.8
52.875,96.8
52.88,102.4
52.885,521
52.8951,330.5
52.9225,252
52.9256,97.7
52.9353,121.3
52.9423,87
52.946,494.5
52.9475,68.1
52.9505,110.2
53.0059,369
53.0173,58.8
53.0186,333.3
53.0202,419.6
53.0218,670.3
53.035,73.7
53.0352,75.6
53.0386,309.9
53.0499,92.3
53.052,139.7
53.055,78.8
53.0609,267
53.0909,173.8
53.1063,107.2
53.1402,355.5
53.1411,509.5
53.143,176.8
53.1448,168.2
53.1635,69.2
53.2354,15.6
53.2591,86.3
53.2912,65.3
53.3083,94.7
53.3193,115.3
53.322,74
53.3367,15.7
53.3477,227.5
53.3499,201.8
53.3716,173.1
53.3765,15.2
53.4048,69.6
53.4087,91.5
53.4255,83.6
53.4353,145.8
53.4393,363.5
53.4499,138.6
53.452,63.9
53.4697,83
53.4776,81.8
53.4843,102.1
53.4937,235.7
53.4958,148.5
53.503,138.2
53.5069,89.7
53.5152,64.5
53.5309,218.5
53.5375,314.7
53.5451,58.9
53.5563,207
53.5658,385.5
53.5662,66.6
53.571,66.7
53.5733,86.2
53.5754,110.9
53.5823,373
53.5998,175.6
53.614,343.5
53.6308,59.9
53.6344,311.1
53.6593,81.2
53.6805,96.6
53.7085,90.7
53.7112,127.1
53.7467,46.7
53.7498,224.1
53.7583,755.6
53.7627,16.6
53.7653,184.2
53.7701,183.3
53.7722,102.2
53.7823,361.6
53.7824,362.3
53.788,368.8
53.8233,16.3
53.831,468.3
53.8442,100.5
53.863,64.8
53.871,81.5
53.9085,110
53.9305,94.8
53.9329,713
53.9408,389.9
53.9423,733.9
53.9439,708.4
53.958,19
53.9655,93
53.9797,241.5
53.9824,108.4
53.9985,74.8
54.0075,176.2
54.0146,112.7
54.0179,41.3
54.0312,55.3
54.0366,15.5
54.0475,85.2
54.0619,67.3
54.0928,241.9
54.1051,94
54.1062,157
54.1102,64.7
54.1267,336.3
54.1515,106.1
54.153,495.9
54.1608,57
54.1707,76.6
54.1818,180.8
54.1883,59.1
54.2076,102
54.2329,253.1
54.2339,85.8
54.2402,737.2
54.2434,110.6
54.2502,370.6
54.2599,219.9
54.2688,137.4
54.2702,250.4
54.2797,104.9
54.2801,129.4
54.285,82
54.2884,401.8
54.3085,17.6
54.3153,645
54.3173,83.1
54.3293,57
54.3438,86.9
54.3509,355.5
54.3763,87.9
54.386,57.5
54.3923,364
54.3929,457.9
54.4053,204.3
54.4078,130.6
54.4147,778.1
54.422,78.7
54.4539,86
54.4562,15.5
54.4634,123.6
54.4649,250.6
54.4734,15.7
54.4817,86.4
54.4857,224.1
54.4971,116.9
54.505,112.8
54.5056,203.1
54.5145,527.5
54.5149,68.3
54.5163,253
54.5339,65.6
54.5498,142
54.5587,250.6
54.5598,428.7
54.5615,81.7
54.5645,749.5
54.576,68.1
54.611,516.5
54.6113,86.4
54.6335,224.6
54.643,365.5
54.6576,102.8
54.6626,210.4
54.664,17.3
54.6907,92.1
54.6911,233
54.7014,204.8
54.7037,225.1
54.7135,89.5
54.7136,83.4
54.7168,68.7
54.7255,70.1
54.7344,66.1
54.7396,15.4
54.7479,663.7
54.7583,178.3
54.7655,53.1
54.7841,177.8
54.7877,314
54.7888,18.9
54.791,55
54.8002,136.2
54.8011,621.2
54.8019,94.1
54.8115,147.5
54.8192,246.8
54.8371,95.6
54.842,68.8
54.8713,100
54.8924,94.8
54.9182,794.3
54.9193,69.6
54.9261,17.5
54.9293,138.4
54.9319,256.6
54.9326,84.9
54.9375,69.4
54.9441,339.1
54.9672,58.1
54.9823,61.9
54.9854,101.5
54.9868,69.6
55.0037,336.7
55.0164,485.9
55.0235,205.5
55.0279,402.9
55.0315,96.7
55.0347,66.6
55.0443,16.7
55.0461,440.5
55.0633,96.2
55.0819,125.7
55.0884,224
55.0986,15.9
55.1118,96
55.1305,576.3
55.131,116.9
55.1443,19
55.1449,162.2
55.1567,72.2
55.1586,204.6
55.1737,70.5
55.1964,89.8
55.2004,302.7
55.2033,350.4
55.206,61.4
55.2135,17.2
55.2363,132.5
55.2879,99.4
55.291,273.9
55.2977,80.6
55.3117,55.7
55.3401,228.7
55.3578,131.9
55.3733,101
55.3831,16.4
55.3906,404.5
55.4291,314.3
55.4306,392.5
55.4359,343
55.4605,163.7
55.4646,407.2
55.4763,102.6
55.4931,143.9
55.5015,823.2
55.5026,438.6
55.5223,58.9
55.5655,78.4
55.5697,79.9
55.5775,118.5
55.5817,191.2
55.5841,382.3
55.5898,117
55.5943,372.5
55.5992,117.6
55.6235,93.7
55.6387,19
55.6532,389.9
55.665,18.1
55.6685,56.5
55.6734,97.4
55.6777,390.3
55.6801,373.5
55.6845,117.1
55.6932,65.5
55.694,57.9
55.7062,73.8
55.7145,599.8
55.7215,90.1
55.7258,323.7
55.7421,149.6
55.743,186.8
55.7645,116.2
55.7653,120.4
55.7708,104.9
55.7723,16.9
55.8126,54.8
55.8156,460.2
55.8169,422.2
55.8263,568
55.8412,272.9
55.8603,57.2
55.88,66.1
55.8932,146
55.8938,19.2
55.8999,72
55.9058,204.5
55.924,336.1
55.9283,90.1
55.9426,17.9
55.943,238.6
55.9437,16
55.9467,87.3
55.9498,123.4
55.9518,277
55.961,95.3
55.9794,156.1
55.9843,632.1
56.0186,98
56.032,739.6
56.0332,227.4
56.0491,61.8
56.0507,108.9
56.0513,541.8
56.0565,90.8
56.0567,123.6
56.0568,108.3
56.0874,593.8
56.0918,268.2
56.0941,116
56.0972,131.2
56.1192,64.4
56.1224,494.4
56.1363,77.2
56.1459,570.2
56.1465,345.1
56.1524,163.3
56.163,124
56.1696,73.5
56.1751,77.4
56.2059,251.9
56.2145,125.7
56.2161,342
56.231,140.5
56.2437,109.5
56.2724,216.4
56.297,369
56.3077,137.9
56.3295,154.6
56.3361,568.4
56.351,108.5
56.3587,113.5
56.3731,148.1
56.3809,52.7
56.3829,92.2
56.4148,151.7
56.4392,235.1
56.4764,158.2
56.4904,115.7
56.4945,199.7
56.4972,249.6
56.5077,19.4
56.519,17.9
56.5439,640.7
56.5634,202.2
56.5767,145.1
56.6219,132.4
56.6244,92.9
56.6291,165.2
56.6337,162.4
56.6403,282.7
56.641,17.6
56.6846,679
56.6869,103.1
56.6968,78
56.7128,301.4
56.7157,271.4
56.7203,334
56.7329,409.4
56.7413,211.2
56.7427,241.4
56.7569,237.7
56.7666,96.8
56.7852,705.4
56.7864,75.5
56.8093,274.7
56.8135,706.9
56.8576,402.1
56.8642,236.5
56.9045,112.2
56.9092,110.6
56.9187,132.3
56.9201,16.5
56.9276,116.7
56.9401,244.5
56.9417,109.3
56.9435,59
56.9506,91.9
56.9517,314.4
56.9622,268.7
56.9854,65.2
56.987,56.2
56.9988,607.2
57.0099,60.8
57.0204,454.8
57.0273,61.8
57.0303,101.8
57.0514,86.7
57.0672,16
57.0701,285.8
57.0711,115
57.0782,414.9
57.0856,672.2
57.0923,60.4
57.1064,69.5
57.1203,353.3
57.1236,753.3
57.1327,251.7
57.1353,17
57.1407,21.2
57.1949,79.8
57.1966,56.5
57.1992,96.6
57.2063,406.3
57.2278,300.9
57.2414,241.7
57.2447,132.9
57.2681,358.2
57.2773,178.9
57.2788,98.2
57.2822,70.9
57.2976,790.2
57.3162,184.5
57.3346,156.9
57.336,72.8
57.3371,63.2
57.3607,17
57.3737,135.3
57.3754,217.3
57.3784,243.2
57.3916,59
57.3995,57.2
57.4121,66
57.4214,18.9
57.4509,91.6
57.4662,76.4
57.4739,92.8
57.4803,898.4
57.498,64.5
57.4987,424.3
57.5089,283.8
57.5107,76.2
57.5115,121.1
57.5302,60.9
57.5312,95.9
57.5539,56.6
57.557,129.1
57.5677,534.6
57.5681,78.6
57.5757,259.3
57.5848,56.1
57.6094,88.3
57.6132,186.6
57.6143,58.1
57.6161,72.9
57.6203,496.1
57.6328,69.7
57.6421,781.6
57.6473,71.3
57.6687,178.3
57.6775,221.2
57.6992,17.7
57.7069,96.8
57.7187,92.8
57.7254,181.9
57.7762,122.9
57.8051,75
57.8057,117.4
57.8131,95.7
57.8171,19.8
57.8279,246.3
57.8283,71.1
57.8345,72.4
57.8421,778.1
57.8617,64.5
57.8676,774.4
57.8701,147.3
57.8913,121.6
57.8979,66.9
57.9072,96.8
57.913,67.5
57.9221,168.2
57.9223,120.2
57.9471,85.5
57.9532,45.2
57.9575,722.1
57.9623,66.5
57.9675,644.2
57.9778,51.9
57.9998,747.9
58.0245,323.2
58.027,806.3
58.028,275.6
58.0415,87.8
58.0447,104.2
58.0655,55.3
58.0866,140.1
58.1105,115.9
58.1131,219.6
58.1289,93.8
58.1433,111
58.1466,71
58.1482,203.2
58.1561,154.2
58.1568,110.3
58.1617,270.5
58.1897,113.3
58.1906,63
58.1967,446.3
58.2314,215.6
58.2476,106.3
58.249,185.9
58.2645,388.2
58.2676,321.6
58.273,348.8
58.2774,77.5
58.2971,57.5
58.3115,99.9
58.3726,76.3
58.4163,126.7
58.4397,834.6
58.4416,64.7
58.467,372
58.4765,113.7
58.5319,68.2
58.5418,480.3
58.5534,774.6
58.5592,358.7
58.5601,87.9
58.5685,196.4
58.5834,247.5
58.6011,389
58.6077,253.5
58.6316,118
58.6412,95.6
58.6476,58.6
58.6523,58.7
58.6554,56
58.6748,63.1
58.6802,86.7
58.6813,81.4
58.6839,354.3
58.6971,91.6
58.7146,18.5
58.7204,410.5
58.7439,19.7
58.7574,468.9
58.7641,176.5
58.7912,59
58.7936,775.7
58.8022,254.7
58.8388,77.2
58.8504,59.2
58.8902,19.2
58.9157,276.9
58.9327,79.1
58.945,16.3
58.9703,212.1
58.9748,218
58.9765,379.3
58.9891,22.6
58.994,62.9
58.9979,168.1
58.9996,70.9
59.0026,102.9
59.0033,46.6
59.0108,58.3
59.0268,60.8
59.0317,249.6
59.071,439.7
59.0721,84.9
59.0805,21.1
59.0896,98.6
59.0931,92.6
59.1013,119.9
59.1176,816.3
59.133,350.3
59.1374,114.5
59.1533,89.8
59.1625,138.4
59.22,129
59.2325,68.3
59.2443,243.3
59.2483,191.8
59.2655,490.7
59.27,61.5
59.2716,133.1
59.2849,14.9
59.2922,117.2
59.3083,228.7
59.3106,358.8
59.324,393.1
59.3322,355.4
59.333,116.2
59.3334,513.8
59.3455,19.8
59.3521,307.4
59.3658,18
59.3837,95.8
59.3864,217
59.3918,15.8
59.3963,133.3
59.4293,114.6
59.4426,74.3
59.4498,168.1
59.4589,209.1
59.4822,238.5
59.4839,99.3
59.4888,777.6
59.515,100.3
59.5259,18.7
59.5572,21.7
59.5683,396.4
59.5691,385.1
59.5711,79
59.5724,68.3
59.5784,59
59.5796,111.6
59.581,514
59.593,249.8
59.595,321.6
59.5989,123.6
59.632,255.5
59.6599,503
59.6668,15.5
59.6684,380.6
59.6714,241
59.6758,281.8
59.6811,61.6
59.6973,60.3
59.7006,16.7
59.7283,15.1
59.7334,189.3
59.7421,55.9
59.7547,419.9
59.7586,99.4
59.7591,395.3
59.7621,742.8
59.7677,165.5
59.7699,74.2
59.78,170.6
59.7834,346.9
59.7905,284.9
59.7972,397.7
59.7991,97.9
59.8001,94.9
59.8038,58.6
59.8141,111.4
59.8176,184.1
59.831,98.6
59.8331,62.7
59.835,111
59.8438,414
59.8464,58.6
59.8954,184.3
59.9441,190.2
59.9635,386.6
59.9892,240.9
60.0026,17.7
60.0188,107.2
60.0322,880.4
60.0409,53.6
60.0429,275.6
60.0512,827.5
60.0543,229.8
60.061,101.8
60.0643,67.3
60.0669,322
60.0673,86.7
60.1364,57.4
60.1415,221.1
60.1463,83.5
60.1509,227.8
60.1601,156.6
60.1766,395.8
60.2019,17.1
60.203,261.1
60.2066,81.1
60.2183,175.9
60.2297,127.2
60.2313,78.7
60.2506,330.5
60.2529,68.3
60.2579,331.5
60.2602,19.1
60.2659,21.6
60.2688,358.5
60.2778,297.4
60.2956,58.9
60.3245,363.6
60.3266,469.9
60.3331,17.2
60.3397,80.3
60.3415,126.9
60.3422,431.4
60.3639,280.4
60.3646,161.5
60.3716,128.5
60.3762,526.9
60.3991,95.4
60.4037,101.6
60.4276,106.8
60.4331,58.6
60.4418,67.2
60.4454,331.9
60.4489,259.5
60.4664,415.3
60.4955,154.4
60.5174,54.5
60.5376,168.5
60.5584,93
60.561,272.6
60.5799,169.8
60.6126,148.6
60.6515,451
60.6597,322.6
60.6675,160.3
60.6784,55.8
60.6799,151.4
60.7007,86
60.7016,132.1
60.727,61.4
60.7304,123.3
60.7312,133.2
60.7444,98.7
60.751,131.3
60.7628,117.2
60.8021,57.3
60.8231,404.6
60.8383,450.6
60.8718,96.6
60.8863,320
60.8872,376.9
60.9026,63.2
60.9037,540.4
60.9089,373.2
60.9145,217.4
60.9337,72.2
60.9535,83.4
60.9968,90.5
61.0099,122.1
61.0187,368.9
61.0386,106.7
61.0544,443.2
61.0593,77.6
61.0635,81.6
61.0651,112.9
61.0966,204.5
61.1105,208.4
61.1148,202.7
61.1501,190.9
61.1578,51.1
61.1666,62.5
61.1803,58.9
61.1932,67.5
61.2001,294
61.2183,683.2
61.2401,222.6
61.2514,111.2
61.2524,343
61.2694,747.3
61.2804,87.8
61.286,148
61.3044,17.3
61.3103,119.2
61.3391,135.6
61.3434,281.9
61.3577,83
61.3707,272.1
61.3884,738.4
61.3973,614
61.4333,150.3
61.4502,87.1
61.4524,211.3
61.4569,130.3
61.4633,79.9
61.4644,289.9
61.4911,152.2
61.5215,252.3
61.5327,94.8
61.538,17.6
61.539,331.4
61.5479,59.7
61.5601,57.9
61.5698,98.3
61.5807,157
61.5969,67.3
61.6163,106.2
61.6225,118.5
61.6284,99.1
61.6324,61.2
61.6351,154.7
61.6602,105.9
61.6705,102.3
61.6712,230.4
61.672,145
61.6736,91.9
61.7247,16.5
61.7503,18.6
61.7627,145.7
61.7715,438.9
61.7786,618.4
61.808,16.8
61.8322,554.8
61.8567,604.1
61.8606,578.1
61.8676,342.3
61.8908,686.7
61.8933,138.7
61.9012,99.9
61.9527,503.7
61.9649,437.4
61.9665,216
61.9844,213.7
61.9858,74.7
61.9904,76.9
62.0034,94
62.0183,757.5
62.0453,94.9
62.0462,228.8
62.0582,291.5
62.0677,390
62.082,322.8
62.0848,656.1
62.0902,211.8
62.0925,74.1
62.0953,60.6
62.1162,304.6
62.118,120.9
62.126,253
62.1435,121.4
62.1451,290.4
62.1602,156.1
62.168,119.1
62.1775,196.3
62.2005,68.9
62.206,145.8
62.2209,45.3
62.2267,64.9
62.2299,126.9
62.2385,94.8
62.2491,63.5
62.285,121.9
62.3318,461.5
62.3661,695.6
62.3683,187.3
62.3718,192.6
62.3931,153.2
62.4098,542.5
62.4329,57.3
62.4482,115.8
62.4544,81.4
62.4598,285.2
62.469,128.7
62.4822,349.4
62.4902,136.8
62.4934,269.6
62.5065,387.5
62.5163,153.7
62.5221,182.2
62.536,614.4
62.5411,377.2
62.5419,70.9
62.5526,329.3
62.5782,81.5
62.5953,186.5
62.6101,77.4
62.6241,184.6
62.6437,51.9
62.6615,95.2
62.7129,481.7
62.7323,139.4
62.8001,112
62.8082,20.8
62.8413,88.7
62.8532,115.3
62.8593,90.9
62.8726,445.4
62.8765,16.5
62.8946,116.9
62.9002,131.2
62.903,294.9
62.9087,16.7
62.9265,504.2
62.929,104.2
62.9675,89.3
62.9704,675.9
62.9812,71.5
62.9901,142.5
62.9962,122.1
63.0023,92.7
63.0075,345.8
63.0402,83.9
63.0453,207.2
63.0462,707.8
63.0693,170.7
63.0838,18.4
63.0873,170.3
63.0903,81.6
63.1014,129.8
63.1042,108.8
63.1109,168.9
63.1131,102.3
63.1256,492.5
63.1287,130.2
63.1325,86.6
63.1344,116.6
63.1502,372.3
63.1616,20.5
63.1737,19.1
63.1755,106.6
63.1783,78.8
63.181,88.7
63.1853,54.8
63.2404,286.8
63.2649,420
63.2828,726.2
63.2861,17.6
63.2923,115.7
63.2929,81
63.2975,91.3
63.3155,96.9
63.3221,15.8
63.3267,63.6
63.3428,236.6
63.3962,425.3
63.4131,59.4
63.4446,355
63.4459,365.1
63.463,17.2
63.4721,401.8
63.4751,515.2
63.4798,169.4
63.5181,51.2
63.5202,365.4
63.524,64.7
63.5244,51.8
63.535,246.1
63.5396,371.7
63.5654,273.9
63.5664,687
63.5751,325.2
63.6214,101.5
63.6228,151.9
63.6315,18.8
63.6406,385.9
63.6434,101.9
63.6543,657.6
63.6659,168.2
63.6938,262.9
63.6949,409.5
63.71,16.9
63.7313,96.4
63.7416,916.1
63.7503,327.9
63.7691,328.3
63.78,932.9
63.8206,122.1
63.8312,100.8
63.8377,68.8
63.8768,86.3
63.9079,214.8
63.9237,698.4
63.9301,114.3
63.9345,66
63.9366,135.4
63.9462,51.4
63.9683,179.7
63.9697,73.1
63.9767,18
63.9811,111.4
63.9838,109.5
63.9896,116.5
64.043,60.1
64.0487,59.8
64.0904,66.5
64.0994,49.2
64.1118,370.6
64.1352,717.8
64.1404,78.6
64.1491,410.5
64.1531,187.9
64.1536,463
64.1547,58.1
64.1618,267.7
64.1722,673.8
64.183,561.5
64.1865,187.2
64.1988,106.5
64.2282,147.1
64.2385,1014.5
64.25,360.6
64.2622,65.4
64.2666,110.8
64.2775,580.8
64.2845,106.7
64.2879,172.2
64.3147,477.5
64.3168,312.3
64.3188,292.2
64.3237,179.4
64.3433,486.4
64.3492,128
64.3554,76.9
64.3841,119.4
64.3846,15.1
64.3952,114.1
64.3972,267.5
64.3997,61.6
64.4041,123
64.4062,118.5
64.4192,15.7
64.4325,51.6
64.4344,428.9
64.4395,120.8
64.4455,48.5
64.4564,296.1
64.4698,767.1
64.4717,130.3
64.4769,16.9
64.4827,331.3
64.4936,60.1
64.4995,59.7
64.5133,245
64.5401,104.3
64.5535,61.3
64.5688,104.3
64.5704,978.8
64.587,373.4
64.5967,209.1
64.5992,397
64.6055,78.9
64.6363,90.3
64.641,69.7
64.6805,91.1
64.687,503.2
64.7055,78.3
64.7149,380.7
64.7158,145.7
64.7196,94.7
64.7213,68.5
64.7317,194.6
64.734,166.7
64.7655,386
64.7681,17.1
64.7802,144.2
64.7899,100.4
64.7954,127.9
64.7986,307.5
64.7996,246.2
64.8126,725.8
64.8231,714.3
64.8384,130.6
64.8414,17.5
64.8441,115.6
64.8491,311.4
64.8518,161.3
64.8705,170.6
64.8711,264.8
64.8712,268.9
64.8715,119.3
64.8794,462.9
64.8823,61
64.886,62.5
64.8916,189.9
64.8921,60.5
64.8925,185.8
64.9066,63.3
64.9283,80.1
64.9511,91.6
64.9705,83.7
64.9774,71.3
65.0127,398.4
65.0227,48.1
65.0258,100.9
65.0319,60.6
65.0349,169.3
65.0395,121.1
65.0439,79.5
65.0489,20.9
65.0639,119.7
65.0655,63.5
65.0849,73
65.0917,100.6
65.0951,267.9
65.097,58.2
65.1062,109.5
65.1074,76.2
65.1125,18.7
65.1232,83.3
65.127,90.3
65.136,520.1
65.1472,620.2
65.1563,115.1
65.1851,149.2
65.1901,753.1
65.1993,384.5
65.2084,202.1
65.2308,84.2
65.2314,920.5
65.2383,76.7
65.2607,55.5
65.2721,118
65.2884,216.4
65.2968,234.5
65.3101,20.5
65.3136,170.9
65.3253,396.1
65.3312,245.8
65.3609,266.2
65.3712,146.7
65.3864,406.1
65.4093,469.8
65.4323,64.9
65.4432,79.1
65.4752,71.4
65.4899,114.4
65.5063,17.6
65.5158,375.9
65.5257,417.3
65.5516,490.4
65.5549,271.3
65.5576,62.3
65.5649,377.2
65.584,76.2
65.6069,207.8
65.6285,106.7
65.6614,433.2
65.6666,198.6
65.6686,103.9
65.6716,363.5
65.6755,62.9
65.681,445.3
65.6816,45.9
65.6824,147.5
65.713,465.7
65.7214,69.5
65.7297,381.7
65.731,166.9
65.7389,101.9
65.7616,87.2
65.7625,431.4
65.7812,211.8
65.7892,67.7
65.8015,368
65.8238,78.8
65.8298,19.6
65.8455,409.3
65.866,80.5
65.8717,378.1
65.8817,107.2
65.8833,52.4
65.8844,145.3
65.9046,107.7
65.9059,61.7
65.9239,167.6
65.9306,101.7
65.9338,93.8
65.9706,112.8
65.9717,77.5
65.9762,148.3
65.9775,465.3
65.9785,717.1
65.9859,351.6
65.9881,151.5
66.0096,191.4
66.0124,408.6
66.0129,16.1
66.0199,801
66.0529,399.7
66.0537,465
66.083,18.8
66.0868,16.9
66.0896,73
66.0918,116.3
66.0928,15.6
66.0931,17.3
66.0971,109.2
66.1078,195.1
66.115,63.6
66.1209,277.9
66.1626,332.2
66.1813,112.8
66.1923,82
66.2326,321.4
66.2476,21.1
66.2521,74.9
66.2614,75.8
66.271,390.1
66.3082,287.4
66.3396,59.9
66.3433,193.1
66.3447,421.2
66.3475,119.5
66.3485,378.3
66.3569,120.4
66.3672,347.6
66.3752,340.5
66.392,79.9
66.3955,239.9
66.3978,57.8
66.4055,394.4
66.4075,95.5
66.4187,126.4
66.4281,481.8
66.4535,402.6
66.4651,522.4
66.4741,212
66.4762,375.2
66.4871,121.6
66.4878,315.4
66.4894,69.4
66.4918,155.7
66.4953,147.2
66.4983,374.3
66.5411,127.5
66.5456,254.4
66.5576,101.8
66.5607,110.1
66.5644,90
66.577,432.8
66.5801,269.1
66.5828,481.5
66.5972,174.2
66.6482,486.7
66.6548,258.4
66.688,57.8
66.6907,524.7
66.7076,83
66.7357,635
66.7423,89.4
66.7491,63.2
66.7647,240.6
66.7653,90.5
66.772,65.7
66.7838,59.4
66.7934,62.4
66.8115,228.5
66.8304,93.2
66.8381,244.6
66.8384,204.4
66.8497,813.7
66.8764,19
66.8819,79.4
66.8892,133.1
66.8908,104.7
66.9085,261.9
66.9377,312.2
66.9408,57.1
66.9674,193.5
66.971,266.2
66.9761,90.1
66.9986,597
66.9992,48.8
66.9996,187.7
67.0279,89.2
67.029,306.1
67.0472,183.4
67.0539,19.9
67.0639,77.8
67.0814,214.2
67.0877,267.9
67.0993,149.3
67.1374,76.4
67.1565,129.3
67.1622,71.4
67.1631,123.7
67.1898,672.6
67.1992,110.9
67.201,101.4
67.2022,94.8
67.209,341.8
67.2329,19.2
67.2342,109.7
67.235,534.6
67.2423,15.7
67.2497,133.3
67.2744,52.8
67.2926,109.6
67.3331,92.4
67.3505,112.4
67.3513,55.5
67.3999,418.6
67.4014,281.7
67.4297,109.5
67.4397,55.8
67.4432,240.2
67.4451,515
67.4537,340.8
67.4561,100.2
67.469,86.8
67.4823,472.9
67.4911,180.2
67.4999,368.4
67.5086,121.3
67.5182,117.8
67.5333,17.6
67.5489,109.2
67.5613,105.4
67.5893,74.8
67.591,78.1
67.6008,102.3
67.607,127.6
67.6102,315.9
67.6686,19
67.6768,21.5
67.6956,484.3
67.7044,145.8
67.7066,369.8
67.7142,649.8
67.7222,76.2
67.7443,383
67.7782,633
67.8003,334.4
67.8097,171.7
67.8117,646.4
67.8431,68.2
67.855,330.6
67.8691,79.8
67.879,556.6
67.9217,149.8
67.9247,213.8
67.927,65.3
67.942,531.7
67.9437,160.6
67.9867,296.1
68.0042,183.1
68.0078,68.7
68.0347,382.9
68.0378,89.2
68.0478,101.8
68.057,191.4
68.0672,79.2
68.1006,51.1
68.1113,832.4
68.1302,573.9
68.1419,108.3
68.1495,121.1
68.1534,146
68.1613,142.2
68.1634,67.6
68.1727,253.8
68.1813,707.2
68.1863,100.2
68.1979,510.3
68.2171,105.8
68.234,311.2
68.265,16.3
68.27,312.8
68.3875,262.2
68.4348,239.6
68.447,101.1
68.4607,181.2
68.4644,167.2
68.5123,66.7
68.5557,118
68.5717,255.8
68.5933,879.4
68.6122,206.8
68.6485,186.4
68.6541,77.1
68.6947,253.7
68.7022,52.4
68.7053,533.8
68.7113,139.9
68.7193,853.9
68.7327,247.4
68.7455,378.3
68.7458,452.4
68.7459,416.7
68.7511,267.9
68.7613,73.5
68.763,120
68.7803,253.8
68.7844,147.4
68.8075,284
68.823,124.7
68.8379,504.5
68.8457,299.9
68.8521,108.6
68.8801,701.9
68.898,53.9
68.9228,130.2
68.9859,99
68.9898,137.3
68.9908,82.9
69.0099,513.8
69.0426,117
69.0563,125.2
69.0587,332.4
69.0596,163.6
69.0613,117.1
69.0618,493.2
69.0675,216.4
69.0837,86.8
69.0854,406.6
69.0906,237.5
69.1148,79.6
69.1162,113.8
69.1317,100.9
69.1345,23.9
69.1483,113.8
69.1903,235.6
69.2019,122.3
69.206,358.6
69.2079,16.2
69.2178,724.1
69.2566,196.2
69.2588,263.4
69.2813,210.9
69.2843,162.3
69.2957,104.2
69.2971,95.9
69.2994,69.2
69.3049,208
69.3185,358.1
69.3241,323.1
69.3269,683.9
69.3313,17.8
69.3479,65.9
69.3663,155.6
69.3784,414.3
69.3791,76.3
69.3817,161
69.3821,829
69.386,22.1
69.3905,18.3
69.3992,111.7
69.4082,200.3
69.4181,441.7
69.4409,413
69.4542,197
69.4572,59.5
69.4821,66.1
69.5047,229.6
69.5329,103.4
69.54,195.9
69.5454,180.3
69.5642,720.7
69.5725,58.7
69.5836,162.6
69.6319,234.9
69.6399,278.1
69.642,65.6
69.6838,108.8
69.6995,856.1
69.7052,278.6
69.7104,326.1
69.7201,243
69.7248,544.9
69.7883,76
69.803,17.9
69.8093,63.8
69.8489,253.9
69.8572,59
69.8995,114.6
69.9208,553.2
69.9311,729.9
69.934,124.1
69.9388,152.8
69.9619,244.6
69.9635,448.9
69.969,243.7
69.9866,169.6
70.0003,264.3
70.0087,126.8
70.0127,186.7
70.0175,90.5
70.0584,533.3
70.0648,450.9
70.0772,215.8
70.0774,244.9
70.0876,187
70.0925,496.8
70.1067,295.6
70.1159,403.9
70.1277,63.1
70.1478,124.6
70.1658,222.9
70.1942,377.3
70.2079,122.1
70.2138,160
70.2314,121.7
70.2601,112.6
70.2697,261.2
70.2731,178.8
70.2757,815.9
70.2767,653.5
70.294,174.3
70.2965,67.3
70.3026,122
70.309,274.5
70.312,335.2
70.3132,209.3
70.3135,290.8
70.321,17.6
70.3338,276.2
70.3549,356.2
70.3588,83.3
70.3848,338
70.3945,581.6
70.4045,220.4
70.406,895.5
70.4072,375.8
70.4289,399.4
70.4347,213.9
70.458,122.7
70.5013,114.5
70.5246,472
70.5256,70.2
70.5295,370.4
70.5753,415.9
70.6052,162
70.6122,167.8
70.6297,134.6
70.6467,153.7
70.6587,384.9
70.6908,397.8
70.6969,176.7
70.7053,83.7
70.7105,561.2
70.735,478.6
70.7423,75.5
70.7491,133.5
70.764,128.6
70.7744,322.8
70.7859,487.6
70.8456,116.8
70.8567,278.2
70.9106,796.1
70.9172,261.8
70.9202,257.7
70.9284,106.1
70.9436,258.2
70.9761,155.5
70.9998,70.4
71.0119,83.5
71.082,361.7
71.1361,161.1
71.1426,109.9
71.1527,442.6
71.1702,275.4
71.1766,104.2
71.1823,62.2
71.2307,17
71.2377,59.9
71.2477,330.7
71.2586,80.2
71.2662,426.7
71.2725,254.2
71.3145,544.7
71.3476,188.1
71.3793,257.5
71.3984,17.4
71.4029,96.1
71.4162,114.9
71.417,272.9
71.487,108.5
71.4923,61.5
71.4962,747.1
71.5126,469.7
71.5266,16.7
71.5979,18.4
71.6009,93.7
71.6136,59.9
71.6355,80.2
71.6377,206.8
71.6743,87.7
71.6793,317.8
71.6888,112.1
71.6935,342.9
71.747,78.4
71.7609,242.4
71.7761,254.3
71.7933,170
71.8066,188.5
71.831,18.7
71.8323,84.6
71.8328,492.2
71.8334,196.5
71.8403,119.4
71.8422,113.4
71.8889,74.7
71.9013,395.9
71.9026,988
71.9125,139.2
71.9162,327.2
71.9257,713.8
71.9615,126.8
71.988,19.3
71.9971,419.5
72.0009,135.5
72.0088,89.6
72.0096,929.8
72.0107,272.5
72.0263,145
72.033,76.4
72.0439,21.3
72.0528,20.2
72.0632,192.2
72.0651,20.4
72.0688,308.2
72.0727,255.7
72.0808,231.1
72.0833,176.4
72.0928,142.6
72.0964,321.2
72.1007,65.1
72.111,348.3
72.1156,482.8
72.1178,203.6
72.1378,312.1
72.1398,105.9
72.1703,381.4
72.1721,654
72.1746,96.9
72.1913,348.8
72.2167,76.8
72.2228,933.1
72.2234,1099.6
72.2248,554.3
72.2255,937.9
72.2267,949.5
72.2272,1039.1
72.2277,358.4
72.2282,403.9
72.229,580.1
72.2302,987.4
72.2314,1979.2
72.2321,1678.6
72.2328,1707.5
72.2332,1532.2
72.2342,2201
72.235,2727.2
72.2354,2562.3
72.2362,3935.4
72.2372,2739.2
72.2381,2104.7
72.2388,2444.3
72.2391,2110.4
72.24,2998.9
72.2414,2302
72.2423,1510.4
72.2441,1837
72.245,1814.3
72.2468,976.8
72.248,1393.3
72.2488,976.2
72.2497,141.5
72.2506,125.3
72.2522,231.7
72.2527,28.6
72.2543,122.1
72.2571,335
72.2603,891.3
72.2645,80.6
72.2785,797.5
72.2984,108.1
72.3029,17.2
72.3223,255.3
72.3258,194.8
72.3895,17.2
72.3936,506.7
72.4129,118.6
72.4255,18.9
72.4734,601.7
72.4968,115.4
72.5054,215.3
72.5218,407.9
72.5591,574.8
72.5947,61
72.5963,826.7
72.6046,321.1
72.6065,77.1
72.6079,94
72.626,413.8
72.6328,113.5
72.65,386.4
72.6523,135.5
72.7044,123.3
72.7078,166.3
72.7125,98.9
72.7339,55.8
72.7387,78.3
72.7588,197.9
72.7818,301.1
72.7873,124.6
72.802,65.4
72.8429,487.6
72.8559,82.1
72.874,461.9
72.8768,241.6
72.8799,64.6
72.8822,179
72.8833,223.2
72.8984,60.1
72.9342,192.1
72.9369,518.5
72.9417,57.6
72.9561,279.3
72.9642,132.4
72.978,840.7
72.9847,103.5
72.986,370
72.9992,47.7
73.0048,303.8
73.0292,95.3
73.0343,90.6
73.0382,126.5
73.0403,117.7
73.0448,92.3
73.0582,486.7
73.0935,137.7
73.0969,421.6
73.1131,130
73.1234,241.1
73.1543,215.6
73.1617,49.7
73.1938,863.9
73.2125,72.5
73.2243,419
73.2339,123.7
73.2478,339.7
73.2538,60.7
73.2595,90.2
73.2615,114.9
73.2788,153.3
73.2861,449.8
73.2902,238.1
73.2942,113.1
73.3229,214.6
73.3334,347.3
73.3375,22.3
73.3385,154.7
73.3975,83.8
73.4074,116.7
73.4739,180.7
73.4859,86.4
73.4914,60
73.5114,489
73.5133,90.3
73.5325,117.3
73.5334,59.6
73.5426,54.5
73.544,86.4
73.5494,168.1
73.5619,231.1
73.5724,127.2
73.573,338.8
73.6049,66
73.6132,108.3
73.6394,181.7
73.6675,156.1
73.6705,230.2
73.6811,18.2
73.6846,62
73.6932,153.1
73.6949,63.1
73.7044,292.8
73.7175,60
73.7259,120.8
73.7346,544.3
73.7364,80.8
73.7506,95.3
73.7699,103.9
73.7834,88.7
73.791,56.7
73.7965,344.2
73.8539,65.7
73.8614,203.9
73.8661,77.3
73.8732,109.5
73.8771,113.9
73.8932,471.4
73.8971,843.6
73.9016,107.5
73.9145,220
73.9269,378.2
73.9318,118.6
73.9689,180.1
73.9769,53.4
73.9918,236.7
74.0048,76.3
74.0128,83.2
74.0266,279.7
74.0385,97.1
74.0396,175.3
74.0597,3526.5
74.0706,65.1
74.0746,127.2
74.1001,157.9
74.144,557.5
74.1471,58.4
74.1862,220.7
74.1879,18.8
74.2033,181.3
74.2187,91.6
74.29,18.6
74.2958,276.8
74.309,573.9
74.3366,114.4
74.3426,629
74.3722,466.2
74.3783,59
74.4015,83
74.4035,167.9
74.4332,511.8
74.4614,114.9
74.4752,95.4
74.4813,111.4
74.4869,67.1
74.4876,73.6
74.4982,68.9
74.5013,103.8
74.5043,154.7
74.5096,124.2
74.5135,79.2
74.5161,18.4
74.517,214.3
74.5255,16.6
74.5369,174.7
74.5549,75.8
74.5644,413.4
74.5688,70.1
74.5707,206.3
74.5873,211.2
74.6001,63.5
74.6158,103.2
74.6354,319.9
74.6487,77.8
74.672,480.9
74.6784,392.3
74.7307,18
74.7447,99.7
74.7632,103.7
74.7647,677.7
74.7772,319.1
74.8001,325.1
74.8264,52
74.8498,106.1
74.8668,16.3
74.8798,706.1
74.8944,16.7
74.9042,128.7
74.9178,814.2
74.9194,83
74.9274,49.5
74.9293,98.1
74.9384,273.4
74.9627,343.2
74.9655,637.3
74.9718,104
75.0039,17.4
75.0117,103.8
75.0138,297.1
75.0167,132.3
75.0204,254.3
75.0424,127.4
75.0441,386.8
75.0513,90.4
75.0657,395.6
75.0694,193.9
75.0744,276.7
75.101,78.3
75.1187,108
75.1276,76.9
75.1393,192.9
75.1463,114
75.1475,56.9
75.1595,455.4
75.1826,274.8
75.1971,97.6
75.2564,95.7
75.2654,596.9
75.2684,452.3
75.2981,317.6
75.3074,767.1
75.315,56.8
75.328,153.2
75.3324,64
75.3365,296.6
75.3468,18.9
75.3583,112.8
75.3622,503.4
75.3633,335
75.3639,313.1
75.3671,515.7
75.3812,138.7
75.3891,202.5
75.3927,92.9
75.3945,16.7
75.404,73.7
75.4199,116
75.4414,605.9
75.4482,19.2
75.4518,217.5
75.4528,462
75.4868,71.2
75.4971,481.6
75.5134,85.6
75.5484,773.7
75.5497,408.6
75.5814,332.5
75.607,111.9
75.6222,215.7
75.6265,168.5
75.6457,97.5
75.6569,129.5
75.6643,65.2
75.7083,142.1
75.729,99.3
75.7477,295.8
75.7641,322.2
75.7871,155.7
75.8141,653.5
75.8153,513.4
75.8544,125.7
75.8595,98.5
75.866,579.1
75.8963,561.1
75.9006,178.5
75.9322,62.6
75.9537,324.5
76.0211,240.1
76.0723,251.3
76.1019,102.2
76.1411,132.1
76.1583,296.5
76.2039,122.3
76.2055,18.7
76.2124,90.1
76.2395,62
76.3285,251.1
76.3404,511.5
76.4105,138.6
76.4133,48
76.4193,71.3
76.4281,69.5
76.4472,21.4
76.4485,376
76.4592,93.1
76.4751,151.3
76.4794,117
76.4866,58.7
76.5023,123.7
76.5122,67.6
76.5176,582.4
76.5254,66
76.5324,170.1
76.5754,21.8
76.5834,184.4
76.6016,62.7
76.604,182.7
76.616,349.8
76.6299,19.7
76.6429,141.8
76.6561,64.5
76.7012,120.2
76.728,289.2
76.7358,431.3
76.7365,98
76.7507,533.7
76.7556,95
76.7588,112.5
76.7677,995.5
76.8534,354.4
76.8719,223.8
76.8787,647.4
76.8938,885
76.913,224.4
76.9164,708
76.9731,63.4
77.0103,77.7
77.0383,120419.8
77.0444,278.2
77.1093,372.3
77.1177,48.8
77.1189,81.2
77.1594,67
77.1647,909.7
77.1665,642.2
77.1852,188.4
77.1938,81.1
77.2671,87
77.2762,90.1
77.3481,324.7
77.3658,107.1
77.3699,18.4
77.3762,171.3
77.4209,322.2
77.431,216.5
77.4547,86.5
77.4642,625.3
77.4762,100.4
77.48,110.9
77.4968,82.8
77.5247,119.1
77.561,142.8
77.5908,121.3
77.6197,168.4
77.6613,18.8
77.7212,67
77.7223,646.7
77.7634,50
77.7871,119.8
77.806,167.7
77.8399,176.6
77.8507,159.6
77.8546,161.5
77.8669,101.7
77.8985,18.7
77.9,325.8
77.9008,81
77.972,126.4
77.9734,85
77.9924,254.7
77.9945,363.5
78.017,729.1
78.0266,391.2
78.0416,3714.3
78.0516,148.1
78.0725,731.6
78.0768,112.3
78.0807,153.9
78.082,62
78.1204,136.6
78.148,409.1
78.1678,232.7
78.1708,116
78.1764,88.7
78.1987,210.4
78.2133,338.9
78.2188,91.4
78.2209,402.9
78.2269,212.1
78.2418,85.2
78.2655,117.2
78.2672,137.1
78.272,260.9
78.2988,423.1
78.3081,17
78.314,89.7
78.3265,400.1
78.3421,72.8
78.3661,376.6
78.3766,388.9
78.3899,118.8
78.3984,156.8
78.4065,474.9
78.4684,106.8
78.5038,90.1
78.5142,19.7
78.5251,135.9
78.5256,135.4
78.5288,405.2
78.5344,554
78.5417,61.1
78.5452,359
78.5795,394.3
78.5983,103.9
78.6211,265.9
78.6276,137.2
78.6537,297.3
78.6587,292.1
78.6595,177.4
78.6599,161.1
78.6769,18.4
78.6866,74.9
78.7,113.1
78.7084,572.1
78.7236,63.8
78.7307,19.7
78.7329,429.6
78.7506,304.4
78.7578,16.8
78.7896,118.1
78.7925,266.3
78.8109,639.8
78.8452,53.5
78.8671,218.2
78.8776,147.6
78.9075,60.9
78.9418,150.6
78.9421,88.6
78.9464,566.2
78.9575,658.6
78.9631,85.7
78.965,17
78.974,792.9
78.9966,188.9
79.0008,129.9
79.0511,17.2
79.0539,2888.2
79.0609,47.9
79.0633,70.9
79.1163,18.5
79.1488,60.5
79.1649,53.6
79.2331,91.9
79.2368,789
79.2566,75.1
79.2872,81.5
79.2944,329.4
79.3003,100.4
79.3269,378.1
79.3394,88.8
79.3413,117.6
79.3603,410.8
79.3751,67
79.3839,462.7
79.3929,135.1
79.3946,383.7
79.4093,162.5
79.4166,525.1
79.4297,15.9
79.4363,172.7
79.4577,308.7
79.5052,118.7
79.5107,365.3
79.5296,227.8
79.5319,384.3
79.5349,134
79.5731,321.8
79.5858,213.2
79.6017,660.2
79.6206,74.6
79.6436,200.1
79.6552,755.1
79.6886,583.2
79.7088,933
79.7366,193.9
79.7417,351.5
79.743,350.8
79.7442,484.8
79.7454,319.4
79.7649,317.2
79.7743,121.7
79.7895,443.1
79.7929,94.1
79.8531,242.2
79.8541,214.8
79.8649,88.5
79.8675,15.2
79.8795,258
79.9004,355.7
79.9022,124.7
79.9043,373.8
79.9131,287.5
79.9172,99.6
79.9505,16.2
79.9536,109.7
79.9545,107.1
79.967,414.4
79.9798,43.1
79.9922,119.3
80.0022,184.3
80.0158,397.4
80.0198,530.2
80.0338,366.9
80.0816,311
80.0946,120.9
80.1107,61.4
80.1219,108.6
80.1352,688.2
80.1543,325.2
80.1946,95.3
80.1984,177
80.2001,495.9
80.2325,20
80.2871,68
80.3013,18.6
80.3044,99.3
80.3077,121.5
80.308,111
80.3084,94.5
80.3116,132.3
80.3373,98.3
80.3662,81.2
80.3675,164.5
80.3682,255.2
80.4033,71.6
80.413,329.6
80.4261,18.4
80.4457,103.7
80.4635,208.8
80.4821,85.5
80.4951,132.3
80.5105,128.1
80.5137,68.5
80.5435,475.1
80.5703,104.5
80.5822,289
80.601,275.4
80.6103,336.3
80.6154,105.2
80.6244,182.2
80.6254,57.1
80.6466,629.5
80.6995,144.2
80.7021,608.7
80.7356,204.4
80.7423,572.3
80.7495,142.3
80.7564,119.7
80.7614,329.1
80.773,277.9
80.7748,346.3
80.8576,332.1
80.8913,122
80.8984,111.6
80.9003,149.6
80.9061,222.6
80.9134,171.4
80.9455,485.1
80.9465,294.8
80.9476,45112.1
80.9536,192.3
80.9603,384.9
80.9661,235.4
80.9872,105.3
80.9953,597.2
81.0226,142.1
81.0458,156
81.0561,68.5
81.0671,293.9
81.0696,2585.6
81.0976,493.3
81.1536,720.7
81.1545,487.5
81.1559,2054.4
81.158,774.2
81.1595,103.7
81.1606,153.9
81.1684,583.3
81.1709,623.4
81.1746,204.6
81.1805,155.2
81.1839,88.5
81.2219,77.7
81.235,64.9
81.2465,246.8
81.2601,486.5
81.2802,735
81.286,118.8
81.3434,52.4
81.3507,140.6
81.3614,97
81.3939,88.4
81.3953,52.1
81.4372,133.1
81.4651,109
81.4733,401.4
81.4767,368.7
81.4814,212
81.4878,201.7
81.5348,714
81.5677,17.2
81.5739,164.4
81.6191,19.2
81.6231,98.6
81.6273,64.7
81.6521,297.3
81.6631,253.5
81.6823,91.5
81.6837,390.5
81.7309,152.5
81.7463,372.3
81.7555,68.9
81.7631,410.1
81.7707,153.4
81.7713,147.7
81.8083,97.5
81.8241,236.1
81.8402,168.7
81.8915,278.5
81.8977,109.7
81.9033,78
81.9122,55.7
81.9225,408.2
81.9572,288.8
81.9593,249
81.9649,451.1
81.9851,165
81.9866,16.5
81.9986,626.4
82.0184,16.9
82.0429,96
82.0509,121.7
82.0975,102.2
82.1072,300.7
82.1209,74.3
82.1293,93.5
82.1391,101.7
82.1452,90.6
82.1457,96.2
82.2022,22
82.2353,571.4
82.2361,154.6
82.277,122.1
82.2847,159.1
82.3461,110.3
82.3567,127.1
82.3668,130.3
82.368,129.9
82.3969,414.1
82.4102,424.4
82.44,103.9
82.4536,708.9
82.4624,213.6
82.469,602.6
82.4699,469.7
82.4812,731.7
82.4881,169.1
82.489,220.7
82.5127,175.3
82.5501,18
82.5509,366.4
82.559,275.5
82.5676,832.8
82.5719,83.2
82.577,76
82.5777,15.8
82.579,70.8
82.6175,80.3
82.6328,327.4
82.6401,115.4
82.6494,193.9
82.6546,115.1
82.6557,210.7
82.6888,163.2
82.6922,19.9
82.704,19.7
82.7065,149
82.7389,108
82.7604,311.5
82.7645,600
82.7718,167.4
82.7771,193.3
82.7846,159
82.8385,916.8
82.85,505.9
82.8515,157
82.863,81.3
82.8744,63.4
82.9153,52.9
82.9179,658.6
82.9251,114.9
82.9406,467.9
82.9412,222.6
82.9446,9938.8
82.9467,751.5
82.9827,333.3
82.986,151.5
82.997,109
83.0103,385.1
83.0197,132.6
83.0214,36
83.0379,70.6
83.0442,382.5
83.0482,114.4
83.0806,645.1
83.0834,107.4
83.1008,153.1
83.1053,190.2
83.1162,718.6
83.1315,117.7
83.1486,425
83.1658,95
83.1871,239.7
83.1884,61.3
83.1954,306.3
83.2007,56.9
83.2183,186.8
83.2715,184.5
83.2752,71.8
83.2816,188.6
83.284,88.4
83.2874,17.2
83.2884,483.8
83.316,264.2
83.3306,149.4
83.34,120.9
83.4004,376.9
83.4063,106
83.412,86.7
83.4702,105.4
83.516,21.4
83.5183,124.2
83.5268,68.7
83.5388,89.9
83.5444,374.8
83.5533,269.2
83.5674,495.9
83.5729,88.7
83.587,76.7
83.5891,104.7
83.5917,60
83.5922,56.6
83.6341,787.9
83.6885,64.8
83.7022,72.7
83.7066,797.4
83.7081,129.9
83.7378,55.4
83.7602,116
83.7628,216.4
83.7769,194.2
83.7938,99.9
83.7957,123.6
83.8046,855.3
83.8226,529.6
83.8284,64.4
83.8386,215.8
83.8789,85.6
83.8868,104.1
83.904,474.9
83.9165,528.1
83.9574,175
83.9771,208.5
83.9793,120.8
84.0205,121.4
84.0216,16.1
84.0339,547.9
84.0804,119.2
84.0989,112.8
84.102,309.3
84.1037,101.2
84.1204,205.7
84.1231,401.4
84.1252,304.3
84.1267,182.5
84.1272,166
84.2211,74.6
84.2366,18.2
84.249,156.9
84.2611,179.6
84.2687,628.5
84.3455,178.4
84.3565,90.6
84.4038,579.9
84.4451,417.4
84.4692,317.7
84.4699,79.8
84.5136,73.1
84.5143,859.6
84.5563,81.5
84.5653,719.7
84.5673,164.7
84.5727,164.4
84.5759,303.7
84.5932,254.3
84.5975,133.8
84.6177,74.7
84.63,125.7
84.649,135.7
84.6721,539.1
84.6943,119.7
84.7118,186.1
84.7141,189.9
84.764,378.7
84.8345,65.3
84.8368,125.3
84.8572,280.4
84.8951,412.2
84.9162,86
84.9217,148.8
84.9244,152.6
84.9288,425.9
84.9594,12058.1
84.9627,114.9
84.9963,343.9
85.0117,16.8
85.0192,166.3
85.0226,116.6
85.0239,73.2
85.0281,5865.1
85.067,321.2
85.0802,453.8
85.1091,289.4
85.1162,143.8
85.1258,92.3
85.1574,469.4
85.1677,16.2
85.1959,156.3
85.2085,84.8
85.215,349.1
85.2428,116.5
85.2579,126.3
85.2737,658.1
85.2825,244.1
85.3431,181.8
85.3715,327.4
85.3809,120.9
85.3821,23.4
85.4675,56.8
85.4732,748
85.4846,73.9
85.4962,124.3
85.5152,19.5
85.5469,395.8
85.5717,75.3
85.5737,153
85.5994,81.2
85.6136,207.5
85.6265,93.2
85.6479,460.3
85.6715,210.1
85.6719,198.9
85.6769,490.8
85.7117,84.1
85.7415,443.1
85.7899,247.6
85.8286,20.2
85.8299,90.4
85.8528,52.8
85.8551,114.6
85.856,82.7
85.8645,16.6
85.8715,710.3
85.8976,403.8
85.9301,78.8
85.9492,17.9
85.951,65.6
85.9603,385.3
85.9666,105.2
85.9682,187.6
85.9801,262.7
85.9977,71.6
86.0138,61.1
86.0598,32819.6
86.0668,380.2
86.074,675.2
86.0746,76.5
86.0962,54309
86.1251,75.9
86.1395,122.6
86.1502,113
86.1521,95.7
86.1784,93
86.1853,157.1
86.2189,177.6
86.2255,78.9
86.2677,105.9
86.2938,624.2
86.2982,97.1
86.3096,133.3
86.3121,19.6
86.3139,16.3
86.3201,134.6
86.3647,363.7
86.3652,383.2
86.4441,323.7
86.4847,107.7
86.5077,80.9
86.5395,271.7
86.5418,240
86.5608,414.5
86.5726,302.4
86.5863,410.4
86.6108,110.7
86.6137,215.4
86.617,141.9
86.6317,313.5
86.6387,392.4
86.6485,223.6
86.6503,333
86.6573,243.9
86.6581,16.8
86.6596,99.7
86.6781,93.7
86.6783,133.2
86.6786,110.8
86.6846,352.7
86.6882,15.8
86.6905,61.5
86.7204,82.7
86.7225,98.8
86.7627,571.4
86.7635,115.4
86.7802,162.2
86.7926,115.5
86.7979,89.8
86.823,632.3
86.8249,293.1
86.8282,62.9
86.8348,693
86.8357,236.8
86.8588,84.3
86.8622,643.4
86.8819,104.5
86.8909,19.5
86.9004,67.7
86.9174,446.3
86.9344,16.3
86.9526,34.8
86.9719,120.1
86.9831,415.4
86.986,54.3
87.0219,737.9
87.0389,16.9
87.0413,120.7
87.0548,116.8
87.0937,67
87.1002,413.1
87.1147,111
87.1361,306.2
87.1523,112.8
87.1865,103.8
87.2431,67.4
87.2918,387
87.3018,141.7
87.3056,98.1
87.3374,100.4
87.3884,119.7
87.4519,482.8
87.4527,699.6
87.4605,71.5
87.4937,740.8
87.4957,16.5
87.565,186.6
87.5731,736.8
87.6037,122.7
87.6057,139.2
87.6163,20
87.6429,80.4
87.6461,154.9
87.704,129.1
87.7568,208.2
87.8041,120.4
87.8208,217.5
87.8815,103.8
87.891,234.1
87.9008,805.4
87.9044,82
87.9079,25.5
87.9444,115.6
87.9679,84.7
87.9705,343
87.983,136.9
87.9842,20.5
87.9992,51.3
88.0028,565.9
88.0104,18.8
88.0144,96.6
88.0237,592
88.0288,292.4
88.0391,9487.3
88.0571,276.4
88.0624,189.6
88.0652,124.9
88.0727,128.6
88.1388,252.3
88.1486,230.2
88.1527,332.1
88.1834,76
88.1867,104.4
88.1899,758.8
88.1933,70.6
88.2098,109.3
88.2296,191.5
88.2313,132.6
88.2385,16.7
88.2473,91.4
88.3547,69.9
88.357,196.7
88.3801,50.3
88.3825,191.8
88.387,202.5
88.3934,55.8
88.4034,538.4
88.4074,125.2
88.4279,67
88.4696,59.1
88.5181,275.4
88.5957,59.6
88.5969,766.3
88.6565,63.1
88.6682,88.4
88.677,456.4
88.6891,123
88.6965,199.3
88.7014,134.7
88.7085,122.8
88.7229,81.9
88.7355,80.3
88.7483,270.4
88.7555,222.8
88.7638,382.4
88.7775,131.9
88.8014,489.2
88.8204,206.2
88.8266,882
88.8868,67
88.8965,378.2
88.9006,515.3
88.9152,162.7
88.935,196.2
88.9373,864.7
88.9521,23.5
88.9616,76.8
88.964,137
88.9736,130.8
88.9746,81.7
88.9758,173.9
88.9763,318.4
88.9765,327.6
88.9797,17.6
89.0026,227.6
89.0342,726
89.0803,17.4
89.0984,154.1
89.1181,86.7
89.1408,166.6
89.1441,68.2
89.1493,16.6
89.159,132.8
89.1772,323.3
89.1849,19.7
89.2255,16.8
89.2515,617.3
89.2762,319.8
89.2797,682.8
89.2803,249.2
89.3066,272.1
89.3612,17.8
89.4023,494.1
89.4138,66.3
89.4312,54.7
89.4373,610
89.4556,313.8
89.5111,57.8
89.5486,17.9
89.5567,281.3
89.5822,142.9
89.6479,217.4
89.6561,112.4
89.6634,93.6
89.6877,204.4
89.6947,236.7
89.7058,103.5
89.7076,322.5
89.7433,125.8
89.7533,63
89.7572,288.7
89.789,394.7
89.7921,401
89.7984,288.4
89.8015,21.2
89.8037,101.4
89.8097,103.3
89.827,227.4
89.8273,477.6
89.8324,103.6
89.8655,148.8
89.8702,16.3
89.885,50.9
89.892,265.3
89.8924,326.1
89.8926,231.3
89.9122,200.4
89.9604,388.5
89.9635,202.4
89.9846,127.2
90.0247,186
90.0335,152.8
90.0376,77.4
90.0432,17.9
90.0838,492.1
90.103,84.5
90.1066,124.6
90.1947,15.9
90.229,311.2
90.2776,221.9
90.3479,68.7
90.3497,372.8
90.3664,19.2
90.3814,264.4
90.385,119.8
90.4332,189.4
90.4365,69.6
90.4491,362.6
90.4521,107.4
90.4609,132.3
90.4701,17.1
90.4733,108.7
90.5199,216.5
90.5287,801.5
90.5362,68.5
90.541,235.1
90.5525,416.3
90.584,776.1
90.6018,268.2
90.6081,256.1
90.6322,203.8
90.686,315.9
90.6871,18.5
90.6895,204.8
90.6934,489.6
90.7053,798.2
90.7248,91.7
90.7302,18.1
90.7646,16.7
90.8112,410.2
90.8282,17.3
90.8513,56
90.8537,773.1
90.8761,66
90.9031,40.1
90.9164,493.7
90.9475,2152.2
90.9723,686.6
90.9764,4810.9
90.9891,247.4
90.9986,220.7
91.0276,17.6
91.0452,243.1
91.054,4372.2
91.0981,723.8
91.1412,144.9
91.1489,209.9
91.1851,346.8
91.2242,184.5
91.2752,287.4
91.2779,18.9
91.2945,167.1
91.307,99.7
91.315,232.7
91.3898,688
91.439,226.4
91.4472,308.9
91.4774,175.7
91.4802,143.8
91.5358,181.3
91.5446,18.6
91.5492,476.9
91.5668,278.9
91.5818,76.8
91.5955,19.2
91.5998,222.1
91.6044,333.1
91.6157,90.9
91.6247,208.3
91.6297,204.4
91.6605,112.9
91.6692,441.8
91.6701,724.3
91.6887,172.5
91.7223,257
91.7289,131.8
91.7629,189.2
91.7681,76.6
91.7765,193.3
91.795,19.6
91.796,255.5
91.8111,213
91.8456,316
91.8626,65.3
91.8678,117.6
91.9127,16.4
91.9175,355.3
91.9286,111.8
91.948,19.5
91.9819,62.6
92.0106,81.2
92.0461,303.5
92.0493,85.1
92.1813,193.7
92.2281,816.7
92.2316,62.3
92.2458,217.1
92.2747,17.2
92.3492,484.9
92.3706,426.1
92.4154,85.7
92.4489,286.2
92.4544,214.9
92.4557,159.3
92.4971,209.4
92.5359,79.2
92.5391,59.9
92.5873,126.4
92.6173,229.4
92.6423,344.3
92.6433,319.6
92.6639,98.1
92.6739,550.9
92.6819,129.4
92.7233,321.1
92.7249,434.3
92.7609,115.6
92.7867,620.2
92.7934,240.6
92.8639,395.7
92.8724,19.2
92.8855,863.4
92.8989,80.9
92.9253,111.5
92.9274,123.9
92.945,873.6
92.9593,121
92.9676,21.6
92.9742,287.2
93.0125,431.2
93.0333,42.2
93.0636,63
93.0697,46.9
93.0994,145.4
93.1116,129.9
93.1151,115.3
93.1319,176.5
93.1567,345.8
93.1607,110.6
93.1934,559.5
93.2183,73.4
93.269,17.7
93.2714,61.7
93.3039,223.1
93.3158,153
93.3166,314.4
93.3529,239.3
93.362,68.9
93.3691,114
93.3785,760.3
93.3916,206.7
93.421,351
93.4287,77.8
93.468,121.9
93.4781,87.8
93.4931,565.6
93.5074,52.9
93.5145,77.3
93.5257,394.8
93.5412,110.3
93.5685,19.7
93.577,66.7
93.5999,1006.4
93.6779,870.4
93.7066,100.2
93.7149,105.1
93.7451,74.1
93.748,396.4
93.7609,67.9
93.7727,15.8
93.7828,82.8
93.7877,486.4
93.8082,219.4
93.8773,17.7
93.8787,21.4
93.8814,88.3
93.8857,669.3
93.8941,109.3
93.9378,67.4
93.9438,68.5
93.9555,17.2
93.9929,61
94.0029,112.7
94.0411,90272
94.0649,25.4
94.0765,264.6
94.1018,675.2
94.1242,284.6
94.1276,318.9
94.157,167.5
94.1771,182.3
94.2109,172.6
94.2324,21.4
94.2334,66.3
94.3129,326.3
94.3466,421.5
94.379,59.1
94.3893,95.5
94.3976,585.1
94.4021,98.1
94.4058,119
94.5001,131.5
94.5437,292.9
94.5536,408.2
94.5819,18
94.5892,180.5
94.6212,176.9
94.6319,64.3
94.6708,95.6
94.6764,130.7
94.6821,70.2
94.7098,137.2
94.7194,114.8
94.7276,406.4
94.7658,18.1
94.771,472.8
94.7842,63
94.8135,275.1
94.8185,403.7
94.8985,223.1
94.9188,158.1
94.9248,130.5
94.9459,169.9
94.9763,125.2
94.9896,432.8
94.9942,89.9
95.0445,2613.5
95.0463,31.5
95.047,75.2
95.0489,430133.6
95.0506,173
95.0513,61.4
95.0567,124.6
95.0624,23.1
95.0716,67.9
95.0756,18.3
95.0842,18
95.0853,1720.6
95.1117,78.3
95.1312,253.1
95.2255,153
95.2341,19.2
95.2383,154.3
95.2822,179.6
95.3202,610.5
95.3297,287.4
95.3572,307.1
95.3603,166.8
95.3658,20.1
95.3984,230.4
95.402,194.3
95.4352,63.9
95.4594,405.8
95.4741,290.4
95.4912,118.4
95.5018,19.2
95.5046,451.3
95.5168,484.8
95.5182,96.4
95.5185,141.3
95.5188,118.4
95.5419,20
95.5809,20.3
95.5855,103.1
95.5978,98.7
95.6002,65.5
95.6185,167.5
95.6486,106.9
95.683,55.2
95.7364,182.4
95.7626,590.5
95.8079,264.8
95.8353,17.3
95.8531,744.5
95.8812,365.4
95.8972,166.2
96.0065,354.8
96.0109,63.6
96.0248,268.8
96.039,75.1
96.0523,21439.7
96.0563,776.7
96.0613,77.1
96.079,328.5
96.0799,99.1
96.0911,113.8
96.1036,318.7
96.1255,147.9
96.1419,64
96.1897,99.8
96.2416,146.6
96.25,75.7
96.2897,105.2
96.3184,237.6
96.3279,495.1
96.3504,268.3
96.3531,100
96.3803,471.4
96.4065,135.8
96.4543,18.4
96.4892,259.6
96.4917,15
96.492,15.5
96.5436,16.6
96.5506,1037.4
96.5537,276
96.5669,421.3
96.5776,476.7
96.6325,398.8
96.6515,92.7
96.6546,438.5
96.6565,635.3
96.6605,518
96.6779,58.9
96.6793,260.1
96.6932,1004.9
96.7734,390.5
96.7763,97.6
96.7859,64
96.8006,146.5
96.8234,18.9
96.8414,321.8
96.8651,168.4
96.8931,68.5
96.9091,316.6
96.911,80.1
96.9201,456
96.9216,135778.1
96.9351,91.8
96.9374,108.1
96.9976,82.3
97.0073,94.8
97.0105,27.4
97.0287,761.7
97.0322,535.7
97.0404,53.2
97.0557,53.8
97.076,18
97.083,17.3
97.1011,19.2
97.1293,20.4
97.1591,104.3
97.1696,367
97.1864,500.4
97.1882,161.7
97.2164,350.6
97.2593,599.6
97.2695,278.8
97.3072,62
97.3188,595.5
97.3403,19
97.3705,70.8
97.3903,102.4
97.3944,66.7
97.4047,412.3
97.4143,200.9
97.4281,97.3
97.4878,18.8
97.4966,410.1
97.5751,204.3
97.6882,18.9
97.71,16.2
97.7133,17.5
97.7732,78.3
97.7776,596.2
97.8121,117.1
97.8187,95.6
97.8732,107.4
97.8932,468.6
97.9421,104.2
97.9688,70.6
97.9703,176.7
97.9841,202.9
98.004,146.7
98.037,80.8
98.0419,476.7
98.0431,345.2
98.0897,125.4
98.0971,125.6
98.1136,91.3
98.1234,96.8
98.226,69.4
98.2302,209.3
98.257,112.8
98.281,458.6
98.2899,66.7
98.2963,162.3
98.3355,182.4
98.337,108.1
98.3476,87
98.3707,62.4
98.4274,59.6
98.4464,69.8
98.4599,60.5
98.4739,110.7
98.4867,198
98.5038,171.6
98.5112,162.3
98.5483,324.6
98.5494,258.6
98.6459,383
98.6599,219.7
98.6852,57.8
98.7117,208.2
98.712,247.6
98.7124,197.4
98.7437,62.4
98.7473,478.4
98.7897,825.3
98.8223,81
98.8246,22.2
98.8284,89.9
98.8541,115.1
98.8677,175.5
98.9186,38527.2
98.9197,5793.4
98.9337,18.3
98.9487,82.7
98.9564,347
98.9752,10316
98.984,139.4
99.0412,350.9
99.0915,91.2
99.097,90.4
99.1147,80.9
99.1197,17.2
99.1221,87
99.1574,17.7
99.1795,774.2
99.1986,17.4
99.2027,17.6
99.2082,18.3
99.2304,72.8
99.2413,118.7
99.2987,102.1
99.3276,22.8
99.3438,419.6
99.3521,91
99.3583,710.8
99.36,863.1
99.375,281
99.3858,243.5
99.4162,109.9
99.4495,59.7
99.4624,253.3
99.4643,104.9
99.5146,140.7
99.6007,111.9
99.6632,115.1
99.6943,987.7
99.7011,83.3
99.7192,292.1
99.7242,95.6
99.7367,143.6
99.741,107.7
99.7461,136.9
99.7705,240
99.7853,80.5
99.7968,145.3
99.842,68
99.85,303.6
99.8781,118.3
99.9056,296.6
99.9342,360
99.9395,598.1
99.974,146
99.9977,82.6
100.0155,297.3
100.0757,40.7
100.1079,291.4
100.1134,16.1
100.1305,20.2
100.1679,128.8
100.1903,835.7
100.2462,22.7
100.2483,321.2
100.2651,86.7
100.27,725.3
100.2865,100
100.2906,162.2
100.2992,136.2
100.3186,124.4
100.3329,148
100.3652,776.8
100.3764,243.7
100.4247,871.7
100.448,359.4
100.4584,74.7
100.4671,149
100.4678,280.9
100.5512,196.6
100.5979,63.7
100.6073,84.7
100.6358,425.8
100.6456,512
100.6507,327.5
100.6731,306.4
100.6961,89.5
100.725,79.3
100.7482,17.9
100.8262,107.5
100.8342,64.4
100.8481,515.3
100.8613,100.8
100.8715,75.9
100.9168,1840.1
100.9488,425.4
100.9591,460.8
100.9664,105.9
100.9708,199.1
100.999,66.7
101.047,2473.5
101.0488,71.8
101.0585,427.2
101.067,330.1
101.0711,117.7
101.0813,329.4
101.1572,355.2
101.1661,116.1
101.2075,335
101.2323,57.2
101.2725,163.5
101.2827,117.3
101.3102,54.4
101.3414,123.1
101.3617,98.1
101.391,348
101.4065,62.1
101.4309,141.7
101.4488,726.7
101.4548,16.7
101.4634,60.4
101.4708,69.8
101.4729,74.6
101.4869,536.8
101.5008,19.1
101.5666,153.3
101.6029,475.5
101.6346,286.3
101.6652,77.1
101.6952,241.4
101.7572,120.5
101.762,300.8
101.7979,69.3
101.8056,243.6
101.8268,463.6
101.864,228.2
101.8656,487.3
101.8907,170.6
101.908,812.9
101.9635,201.6
102.0429,360.9
102.0548,3982.9
102.0581,179.9
102.0593,185.4
102.0824,18.7
102.1008,179.9
102.1198,112.1
102.1345,77.1
102.1422,126.6
102.1642,162
102.1662,115.3
102.2274,184.4
102.2476,180.6
102.2592,77.3
102.2875,190.3
102.3019,293.8
102.3123,84.8
102.3152,440.7
102.3187,218
102.3625,98.9
102.3707,514.2
102.4033,296.6
102.4315,203.3
102.4423,299.1
102.4584,290.4
102.5146,239.7
102.5307,126.8
102.5486,140.7
102.6094,147.5
102.6365,339.4
102.6866,448.7
102.6875,125.7
102.7254,758.6
102.7411,120.2
102.7575,17.8
102.7614,99.7
102.7854,17.2
102.8021,119.9
102.8074,474.2
102.8315,203.3
102.8386,81.4
102.8711,62.9
102.9095,105.6
102.9274,163.2
102.9459,114.5
102.9475,25.6
102.9678,100.7
102.9701,455.3
103.0118,84.9
103.0195,528.4
103.0433,78.1
103.054,560.3
103.0579,100.4
103.0634,378.5
103.0776,220.3
103.1498,58
103.1776,522.1
103.2166,89.8
103.2586,285.6
103.271,98
103.2795,16.7
103.3511,410.5
103.425,203.1
103.438,427.1
103.4418,54.5
103.4493,119.9
103.4735,145.6
103.4905,509.9
103.5436,292.3
103.5615,334.2
103.5663,62.1
103.5774,113.8
103.6173,105.9
103.6539,620
103.7132,106.7
103.7474,610.8
103.8317,133.1
103.8339,93.2
103.8418,348.8
103.8516,654.9
103.8623,302.3
103.9433,399.3
103.9488,80.9
103.97,128.3
103.9792,152.4
103.9842,241.6
103.9925,179
104.0517,21.1
104.0565,430.4
104.0743,144.3
104.085,87.1
104.1068,126087.9
104.1084,24.1
104.1661,242.8
104.187,205.4
104.2814,354.7
104.2988,20.6
104.3027,322.1
104.324,429
104.3318,1003
104.3352,422.1
104.3853,61.1
104.3887,324.3
104.3996,113.8
104.4485,77.5
104.4563,602.6
104.4897,138
104.5487,599.7
104.5738,167.7
104.5804,871.8
104.6174,350.7
104.6196,71.6
104.6334,18.3
104.6393,403.7
104.6881,76.1
104.6906,83.3
104.7119,99.3
104.7151,93.1
104.7815,201.3
104.8125,144.6
104.8463,619.2
104.8632,16.9
104.8932,640.2
104.948,110.9
104.9632,3676.7
104.9784,105.2
104.9788,166.2
104.9921,4403.6
104.9989,119.6
105.002,544.5
105.0112,123.8
105.0129,114.8
105.0209,20.4
105.0283,758.7
105.0332,20.7
105.0376,752.1
105.0446,41367.6
105.0697,62.9
105.0817,136.9
105.0994,106.8
105.1102,1204.3
105.1318,72
105.1382,312.2
105.1608,797.6
105.1774,70
105.1833,17.7
105.1948,201.7
105.1966,201.4
105.2724,288.2
105.2934,119.4
105.3517,353.4
105.3703,320.1
105.3926,18.7
105.394,286
105.428,71.7
105.4709,67.4
105.493,69.1
105.5326,190.2
105.5441,189.5
105.5735,65
105.5772,132
105.5867,197.2
105.5922,104.3
105.5991,601
105.6481,102.9
105.6962,301.5
105.7422,135.1
105.7629,268.3
105.7837,115.5
105.8219,19.1
105.8796,166.2
105.8896,79.6
105.8975,126.2
105.9426,63.2
105.9636,57
105.983,140.7
105.9842,615.9
105.9945,19.2
106.0012,68.3
106.0311,419.2
106.0438,80.7
106.0479,529.7
106.0599,148.2
106.065,19
106.0749,97.2
106.1682,180.6
106.1955,63.9
106.2119,199.3
106.2226,63.3
106.2733,71.4
106.2882,115.6
106.315,109.8
106.3482,358.8
106.3539,352.7
106.3672,774.4
106.3963,302.5
106.4112,381
106.4318,103.4
106.4429,118.6
106.4565,422.9
106.5813,255.6
106.6105,180.1
106.6168,410.7
106.6275,64.3
106.7136,521.1
106.7237,68.8
106.7581,16.4
106.7675,299.7
106.7994,120.2
106.8187,79.1
106.8644,792.5
106.9043,460.6
106.9132,17.5
106.9402,221.1
106.9434,63.6
106.9502,924.3
106.9636,119
106.9839,62.5
106.9875,440.8
106.9917,27
106.9933,336.4
107.0006,109.2
107.0115,71.4
107.02,230
107.0283,33.1
107.049,569.1
107.054,113.4
107.0853,107.3
107.0907,461
107.1575,741.1
107.1594,411.9
107.1955,82.5
107.2071,83.3
107.2214,197.4
107.2277,126.4
107.2387,190.9
107.2401,207.4
107.2424,532.9
107.2497,235.2
107.2718,387.6
107.2735,101.5
107.2804,326.4
107.3013,168.2
107.3267,22.7
107.374,861.7
107.3942,96.6
107.4312,220.9
107.4632,86
107.4797,385.4
107.4939,273.2
107.5251,366.7
107.5606,711.8
107.5848,120.1
107.5994,110.3
107.6069,92
107.6321,20.5
107.6885,302.5
107.6923,153
107.7005,242.8
107.7008,246
107.7065,17.6
107.7619,74.1
107.7662,143.1
107.7761,297.6
107.7834,303.1
107.7868,157.9
107.7887,124.3
107.7946,18.6
107.8311,73.2
107.8379,79.1
107.8838,357.2
107.8961,522.2
107.9921,79.1
108.0533,81.6
108.0823,257
108.0925,230.8
108.1047,21.7
108.1219,854
108.1292,350
108.149,167.2
108.1738,299
108.1812,112.7
108.1993,543.3
108.2416,298.1
108.245,235.2
108.2504,202.2
108.3442,88
108.3484,745.7
108.3687,69.4
108.3735,816.1
108.3865,322.3
108.4789,81.2
108.4925,57.7
108.5259,158.1
108.542,342.5
108.5542,20.6
108.5803,66.4
108.6077,186.7
108.6483,72.2
108.6555,417.6
108.6641,17.8
108.6872,57.4
108.6894,351.2
108.7117,102.2
108.7147,127.4
108.7354,398.1
108.7644,19.1
108.8037,123.5
108.8167,62
108.8236,139
108.8492,133.6
108.9345,101.9
108.9531,318.8
108.9581,58.6
108.9589,52.3
108.9686,313.2
108.9977,203.4
108.9999,696
109.0039,337.9
109.0095,340.2
109.0105,31.8
109.0202,500.8
109.0302,158.8
109.0347,307.8
109.0646,99676.7
109.1013,547.6
109.1463,134.8
109.2419,420
109.2714,62.3
109.2751,774.1
109.2767,63
109.2852,103.7
109.3177,314.2
109.3417,18.2
109.3484,359.4
109.3522,206.8
109.3732,69.8
109.379,217.6
109.3979,179.3
109.4295,138.9
109.4427,89.4
109.4468,160.1
109.461,78.3
109.5072,77.1
109.5301,589.8
109.5416,291.8
109.5451,261.6
109.5548,96.7
109.5979,106
109.63,63.5
109.6477,18.5
109.6653,72.3
109.6796,109
109.7135,117.9
109.7211,167.6
109.7941,67
109.8161,18.4
109.8216,238.4
109.8465,484.9
109.9062,140.7
109.9478,76.4
109.9578,129
109.9854,521.6
110.0443,110.6
110.0497,16.4
110.0569,336.6
110.064,197.3
110.068,4459.1
110.071,506.4
110.0955,105.6
110.1023,71.7
110.1225,120.2
110.1488,349.8
110.1681,128.1
110.1965,182.9
110.2669,340.9
110.2958,181
110.3088,151.2
110.3302,73
110.3437,809
110.3447,162.1
110.3516,268.1
110.3872,98.7
110.4548,118.9
110.4945,472.5
110.5495,116
110.5581,277.5
110.6021,374.5
110.6264,128.1
110.6477,802.4
110.6852,109.9
110.687,157.9
110.691,108.3
110.7001,74
110.7521,433.9
110.7964,429.8
110.7991,90.7
110.8874,142.8
110.8947,161.1
110.8965,286.7
110.9063,74.7
110.9151,79.6
110.939,113.5
111.0214,239.9
111.0231,240.5
111.0295,82.7
111.0375,78.4
111.0439,243.9
111.0633,157.7
111.0916,71.2
111.1166,142
111.1613,81.7
111.1856,100.1
111.1981,189
111.335,88.4
111.4212,200.3
111.4369,105.7
111.4462,135
111.489,311.3
111.5144,179.7
111.5586,494.2
111.5716,87.8
111.6011,67.4
111.7038,136.2
111.7399,129.4
111.7682,133.7
111.779,122.2
111.8149,493
111.8194,210.1
111.8259,104.2
111.8466,61.6
111.8484,119.8
111.9776,76.4
112.0197,20
112.0395,227.8
112.0457,374.8
112.0763,111.4
112.0914,82.8
112.0994,608.3
112.1222,91.6
112.1478,343.9
112.1648,17
112.1738,201.4
112.1883,197.3
112.2673,62.4
112.3835,68.6
112.3913,197.3
112.4241,162.4
112.4825,85.8
112.5241,114.9
112.5318,299.9
112.5351,64
112.5388,81.6
112.5453,716.7
112.5588,138.2
112.5993,530.9
112.6527,88.4
112.7127,140.9
112.8439,491
112.8956,400471.7
112.898,64.5
112.9048,115.6
112.9548,289.1
113.0034,213.3
113.0111,114.4
113.0402,260.3
113.0846,309.2
113.0903,373.6
113.1072,1877.3
113.1097,91.9
113.142,239
113.1592,157.9
113.1953,85.9
113.2152,97.2
113.2493,109
113.2809,17.7
113.3419,173.7
113.3456,18
113.3781,159.8
113.4647,160.5
113.4696,248.8
113.4741,942.6
113.5248,131.7
113.5308,247.9
113.5534,163.4
113.5606,84.1
113.5666,82.3
113.5772,295.1
113.649,251.2
113.6886,187.9
113.7824,17.1
113.7859,89
113.827,122.3
113.8872,362.4
113.9212,96.9
113.9582,58.1
113.9767,45.3
114.0102,245.9
114.0214,271.7
114.0548,54264.8
114.1046,54.4
114.1138,72.5
114.1898,69.6
114.3492,85.5
114.3604,116
114.3714,129.8
114.3855,81.3
114.4784,123.4
114.5398,172.6
114.5465,65.3
114.552,431.2
114.5852,153.2
114.6385,606.7
114.6527,136.8
114.6746,120.1
114.6766,443
114.7036,160.3
114.741,171.2
114.7881,220.8
114.8391,59.5
114.8536,18.9
114.8575,188.8
114.8681,301.8
114.876,20.3
114.8926,129011
114.9235,243.9
114.933,317.5
114.9481,356.9
114.962,179.7
114.9712,771.2
114.9935,83.9
115.028,313
115.0357,112.6
115.0582,1525.8
115.0646,120.3
115.0824,18.8
115.0864,527.7
115.092,319.4
115.0934,251.3
115.1229,83.9
115.1811,491.7
115.2157,107.1
115.2342,85.4
115.2757,226.9
115.3673,316.6
115.4247,102.5
115.4326,88.1
115.4366,333.9
115.4389,502.9
115.4738,286.9
115.4755,242.7
115.4811,541.3
115.5242,111.8
115.5871,93.1
115.5914,109.7
115.6044,130.5
115.6199,71.3
115.65,79.5
115.6761,124.7
115.6918,90.4
115.7532,75.6
115.7659,320.6
115.7731,18.5
115.8083,17.3
115.844,396.2
115.8946,470
115.9039,122
115.9073,418.2
115.9373,63.6
115.94,83.2
115.9792,327.5
115.9907,106.6
115.9933,517.1
116.0704,4476.2
116.0933,15.8
116.1156,223.5
116.1182,233
116.1916,261.4
116.2813,99.5
116.287,66.7
116.2885,442.4
116.3021,102.6
116.321,206.2
116.326,477.8
116.3665,572.2
116.3943,388.2
116.4332,17.7
116.438,77.2
116.4581,69.6
116.5213,200.4
116.5228,201.8
116.5376,185.7
116.562,18.6
116.5846,417.3
116.6001,245.7
116.6075,370.1
116.6592,795.7
116.6739,299.5
116.7079,16.1
116.7144,20.7
116.7218,465.8
116.7309,118.4
116.7826,907.9
116.7841,252.7
116.8546,310.4
116.856,493.8
116.8686,563.8
116.8907,14682.2
116.9479,31.2
116.9607,19.7
116.9631,31.6
116.9836,25.2
116.9858,2785.4
117.0148,130.3
117.0217,115.4
117.052,80.9
117.0698,21.2
117.0871,85.6
117.0894,18.3
117.1137,173.6
117.1184,642.3
117.1281,120.4
117.3146,74.8
117.3314,156.5
117.3784,120.2
117.4132,153.5
117.435,275.2
117.445,18.2
117.4501,127.9
117.4988,177.6
117.5117,469.6
117.5137,283.8
117.5284,62.8
117.5314,105.8
117.5461,297.5
117.6105,122.8
117.6124,79.3
117.6367,159.4
117.6509,140
117.6883,129.1
117.7162,393.4
117.7495,115.7
117.7782,219.6
117.799,248.6
117.8624,316.3
117.9096,113.6
117.9453,108.6
117.9568,326
118.0053,429
118.0236,187.6
118.0853,119.4
118.0866,335.8
118.135,170.9
118.1457,187.3
118.1586,18.3
118.1829,197.1
118.2126,109.4
118.2175,274.1
118.2243,292.3
118.2381,97.7
118.242,502.5
118.2674,134
118.2981,108.3
118.3488,82.2
118.3571,121.7
118.4004,15.6
118.4155,405.6
118.4409,95.8
118.5577,89.6
118.5647,545
118.5872,506.7
118.5909,562
118.5989,95.6
118.6028,173.3
118.6721,16.8
118.7125,16.5
118.7469,59.2
118.7601,129.6
118.7722,335.7
118.7766,396.3
118.7803,324.4
118.8019,140.3
118.8544,186.8
118.8758,285.2
118.8919,454.7
118.9257,68.1
118.9425,450.9
118.9764,271.6
118.9789,1010.8
118.9874,140.9
119.001,51
119.0188,31.6
119.0231,87.9
119.0456,454.4
119.072,112.8
119.1932,215.4
119.2248,169.6
119.2482,18.5
119.2979,369
119.3045,429.9
119.3145,266.4
119.4257,64.9
119.4456,71.3
119.4891,80.9
119.4917,193.5
119.5326,76.1
119.6258,111.2
119.6881,422.7
119.7815,103.2
119.8037,315.2
119.8044,363.6
119.8048,325.3
119.8779,325.5
119.9747,91.5
119.9826,133.3
120.003,1243.2
120.0452,151.1
120.0628,98
120.0807,156.8
120.1069,389.1
120.1402,705.7
120.183,19.4
120.2108,84.6
120.2637,653.1
120.3223,274.3
120.3245,56.4
120.3862,81.7
120.3935,19
120.4028,360.7
120.4304,71.4
120.4333,20.1
120.451,586.1
120.4864,194.6
120.4901,509.4
120.4973,416.1
120.5077,511.6
120.5429,552.5
120.5564,120.4
120.5629,303.5
120.5703,17.2
120.6046,98.9
120.6251,64.3
120.6342,109.3
120.6476,57.8
120.6528,252.4
120.6577,361.4
120.6995,604.3
120.7019,118.8
120.7097,94.1
120.7671,848.1
120.7726,79
120.8021,511.3
120.8338,173.1
120.8636,107.4
120.8707,233.9
120.8746,202.4
120.8809,243.8
120.8832,118.8
120.894,806.1
120.8951,491.9
120.9231,245.9
120.9251,60.4
120.9674,862.7
120.9781,195.1
120.9793,68.8
120.9807,111.8
120.9978,106.9
121.0075,295.5
121.0284,403.4
121.0395,22.3
121.0443,85.4
121.101,103.7
121.1118,353.2
121.129,111.5
121.1348,107.3
121.1388,80.4
121.207,223.9
121.2228,92.1
121.2251,268.7
121.2919,474
121.2954,691.1
121.4099,249.8
121.4274,147.2
121.4572,625.3
121.5213,127.4
121.5254,240.9
121.6089,55.8
121.674,153
121.7054,189.5
121.722,198.2
121.725,101.6
121.7632,19.1
121.8557,102
121.8777,709.8
122.0116,124.3
122.0209,77.7
122.0264,718.4
122.0331,241.8
122.0734,309.4
122.081,448.2
122.0943,235.2
122.1457,58.5
122.1492,780.5
122.2584,17.9
122.352,126.4
122.3661,372.7
122.3971,300.8
122.4141,65.2
122.4683,132.7
122.6223,94.1
122.6282,164.2
122.632,894.3
122.6769,572.4
122.6785,148
122.7344,107.7
122.7775,126
122.7818,125.2
122.7971,266.7
122.8057,393.2
122.8621,67.8
122.8947,71.4
122.9007,278.9
122.9244,9871.6
122.9293,24.5
122.9607,96.5
122.9738,156.1
123.0302,799.1
123.0323,270.7
123.0335,269.2
123.0774,18.7
123.0802,29.3
123.1024,185.7
123.1168,107.2
123.1235,97.6
123.1297,784.9
123.1387,104.8
123.1462,104.5
123.1495,407.5
123.1697,613.6
123.1739,93.9
123.1878,63.9
123.1905,81.9
123.2048,106.7
123.2366,150.5
123.2615,86.1
123.2935,114.3
123.296,287.1
123.3094,20.1
123.3299,21.3
123.3322,109.1
123.3343,66.9
123.351,63.9
123.3872,19.9
123.4148,159.4
123.4298,104.9
123.4403,83.5
123.5016,115.7
123.526,433.2
123.5474,17.3
123.6026,54.2
123.614,157.3
123.6155,115.2
123.6294,118
123.6325,816.6
123.6496,115
123.6543,111.3
123.683,753.7
123.7013,390.1
123.7205,239.2
123.7457,236.9
123.8207,468.9
123.8352,177.8
123.8389,403.6
123.9056,743.9
123.9222,61.4
123.9678,67.1
123.9705,62.7
124.0366,312.2
124.0623,275.4
124.0645,372.6
124.0811,294.2
124.0833,18.6
124.0901,49
124.1897,120.2
124.2473,19.9
124.2657,131.9
124.3504,375.9
124.3708,123.5
124.3859,145.8
124.3905,137
124.3946,236.5
124.4055,112.3
124.41,17
124.4133,18.4
124.4522,110.2
124.4709,20.4
124.5422,112.9
124.5434,438.7
124.5747,398.2
124.6066,753.9
124.6475,466.8
124.7646,213.9
124.7689,340.6
124.7899,156
124.8398,118.8
124.8487,160.5
124.8528,77.1
124.9073,177.4
124.9225,925.1
124.9996,1353.8
125.0055,565.7
125.0388,182.9
125.0596,40.9
125.062,765
125.0814,863.8
125.1072,67.1
125.1688,95.3
125.1987,736.4
125.206,253.5
125.3195,130.1
125.3219,143.9
125.3452,139.7
125.3976,58.9
125.4083,729.9
125.4326,190.4
125.4702,127.9
125.5439,544.4
125.5861,128.5
125.6212,135.6
125.6417,19
125.6993,76.8
125.7361,121.3
125.796,581.5
125.8088,17
125.8149,403.8
125.8199,125.1
125.8301,18.1
125.8496,115.1
125.8871,248.2
125.8919,138
125.9018,625.2
125.9287,191.3
126,80.1
126.009,21.5
126.066,751.6
126.0842,619.5
126.1045,139.4
126.1117,141.5
126.1219,95.5
126.1245,416.5
126.149,21.5
126.2012,165.4
126.2166,232.8
126.2206,667.3
126.2217,157.1
126.2249,802.5
126.237,197.2
126.2572,646.6
126.2628,171.4
126.2807,430.5
126.3342,320.7
126.3617,291.6
126.3834,174.2
126.3955,68.6
126.4073,150.3
126.4196,582.4
126.4428,997.6
126.4685,232.3
126.4745,65.3
126.4956,185.6
126.4971,20.7
126.5149,119.9
126.5367,848.7
126.5463,56.3
126.6175,271.4
126.6953,68.9
126.6987,20.3
126.7039,113.4
126.7083,129.9
126.7364,174.2
126.7875,166.6
126.8142,115
126.8834,154.8
126.8893,185.4
126.9139,956.1
126.9286,118.2
126.9506,145.6
127.0154,165.1
127.0477,143.4
127.052,88.6
127.123,434.4
127.1476,300.1
127.1643,401
127.231,17.7
127.258,296.9
127.2916,729.3
127.3007,113.1
127.3221,347.6
127.3868,87.2
127.3892,17.5
127.3925,429.1
127.401,463.2
127.4212,133.3
127.4338,19.2
127.4528,308.4
127.5653,98.2
127.572,19.8
127.5889,107.1
127.5926,171.1
127.5983,113
127.6031,67.9
127.6312,825
127.6453,84.5
127.6472,307
127.6634,77.4
127.6766,87
127.7146,258.6
127.7241,703.1
127.7348,17.7
127.751,91.1
127.7682,319.2
127.7711,219.4
127.8077,106.3
127.8132,317.3
127.8732,117.7
127.9132,79
128.1139,294.5
128.1279,113.7
128.3256,17.4
128.351,89.8
128.3724,181.1
128.3747,291.8
128.4667,17.3
128.5806,91.3
128.6093,16.8
128.6142,54.8
128.6175,55.8
128.6397,188
128.6679,239.3
128.6699,385.9
128.6753,575
128.687,115
128.6957,537.3
128.7131,70.5
128.7435,120.3
128.778,75.3
128.7812,59.9
128.7971,68.7
128.8362,102.4
128.8779,200.1
128.8973,121.4
128.9027,247.7
128.9031,247.9
128.9248,222.5
128.9638,315.4
128.9688,69.1
128.9975,421.8
128.9998,130.3
129.1052,296.6
129.1247,453
129.1732,100
129.2088,168.1
129.2108,18.9
129.2444,168.6
129.2655,62.5
129.2682,678.2
129.3239,157.5
129.3748,101.1
129.3959,92
129.42,687.8
129.4436,62.8
129.4914,139
129.518,168.1
129.5195,215
129.5349,463.1
129.5457,67.2
129.6485,224.6
129.7547,213.2
129.7682,265.8
129.8065,123.7
129.8657,169.2
129.8731,60.7
129.9247,97.5
129.9586,114.8
129.9639,27.4
129.9877,105
129.9948,180.2
130.0498,4733.4
130.0653,43.7
130.0861,1055.2
130.1019,164.9
130.1294,154.8
130.1372,116.7
130.1866,86.7
130.2193,445.1
130.2341,70.9
130.3116,116.5
130.4137,202.5
130.4153,183.2
130.4761,203.5
130.5122,144.7
130.5635,17.2
130.5671,589.9
130.5747,20.8
130.6098,20.4
130.6445,116.8
130.6621,340
130.7681,114
130.7992,64.7
130.8052,201.7
130.827,17.2
130.9163,223.6
130.9196,351.3
130.924,84.9
130.9268,77.1
130.9405,86.2
130.9415,101
130.9629,26.1
130.9789,21.4
130.9852,492.3
130.9947,478.7
131.0002,54.7
131.0048,263.6
131.0072,174.7
131.0102,218.2
131.0167,78.4
131.0504,105.7
131.0646,279.7
131.0853,72.1
131.1332,180.7
131.1562,112.6
131.1653,17.8
131.3095,203.5
131.3401,66.6
131.3934,120.9
131.4048,277.5
131.4533,422.3
131.6093,101.5
131.6189,113.3
131.6601,704.6
131.7064,364.3
131.7119,341.5
131.7138,207.6
131.721,176.5
131.7651,133.9
131.8673,76.1
131.8892,122.8
131.8948,170.7
131.921,111.9
131.924,185
131.9612,23.1
131.9777,236.5
132.0001,131.5
132.0031,32736.1
132.0232,269.9
132.0287,272
132.0449,174.2
132.0582,1181.7
132.0654,103881
132.0882,165.7
132.1191,160.5
132.148,578
132.1543,201.1
132.1735,100.6
132.2002,530.6
132.2047,67.5
132.2134,236.6
132.2539,113.7
132.2775,83.6
132.4371,20
132.4556,169.2
132.6874,18.4
132.7186,19.1
132.7223,111.7
132.7509,121.3
132.774,694.6
132.8135,328
132.8472,63.1
132.8653,268.5
132.8728,65
132.9027,26.4
132.9582,595.5
132.9696,28.2
132.9769,84.1
132.9871,671.7
133.0066,273.3
133.0179,87.4
133.0428,95.6
133.0688,2615.7
133.0971,21106.4
133.1012,81.8
133.1326,135.8
133.1754,324.8
133.214,130
133.2182,20.4
133.2431,105.9
133.2543,78.8
133.2563,65.7
133.2595,116.1
133.2798,322.2
133.2911,95.4
133.3112,71.9
133.318,81
133.3295,871.2
133.3341,74
133.3404,83
133.3789,398.5
133.4666,18.9
133.5482,74.1
133.5781,72.4
133.668,249.4
133.6784,227
133.6947,745.2
133.7048,102.2
133.7296,208.5
133.7543,280.3
133.7899,152.4
133.8282,641.7
133.866,234.7
133.8985,394.3
133.9298,126.3
133.9782,17.4
134.0187,5918.3
134.0228,269.2
134.0397,143.3
134.1698,99.3
134.1769,372.2
134.2032,383.3
134.2096,340.4
134.2279,291.3
134.2382,408.3
134.277,83.8
134.2879,59.8
134.3226,282.4
134.3803,109.1
134.4114,69.7
134.4219,118.8
134.5202,287.2
134.5433,614.1
134.5554,177.4
134.5661,69.2
134.5807,240.9
134.5855,727.7
134.5875,298.4
134.5984,181.4
134.6003,135.2
134.6931,419.8
134.702,18.4
134.7058,210.7
134.7375,116.2
134.7859,387
134.8541,64.8
134.8845,421.3
134.9316,149.5
134.9434,17.8
134.9606,285.2
134.9613,340.8
134.968,67
134.9707,125.9
134.9892,91.4
134.9964,108.8
135.0027,53960.7
135.0232,79
135.0358,68.3
135.0453,96.3
135.0857,437.8
135.0972,58.6
135.1026,392
135.1165,232.6
135.1712,724.7
135.2325,310.5
135.2727,456.7
135.2917,103.2
135.3286,116.4
135.3533,167.7
135.3758,450.1
135.404,270.5
135.4668,240.7
135.5277,782.7
135.5668,653.7
135.7338,92.2
135.7809,403.9
135.9325,99
135.9394,117.1
135.9729,79.8
135.977,1317.4
135.9787,22
135.9816,19.2
136.0059,347
136.018,99.2
136.0273,79.5
136.0391,316.4
136.048,2520.5
136.0518,294.9
136.1056,110
136.1349,147.2
136.1747,208.3
136.3214,111.9
136.3522,179.2
136.4447,107.9
136.509,655.6
136.5143,185.4
136.5498,443.2
136.6075,235.4
136.627,241.9
136.6646,281
136.754,197.4
136.77,76.1
136.7843,448.3
136.8506,866.7
136.8818,172.4
136.928,22.8
136.9532,102.9
136.9895,90.7
137.0292,17
137.0889,166.7
137.1129,108.8
137.2058,95.3
137.2191,183.9
137.267,66.5
137.2883,100
137.2915,71.6
137.2933,125.8
137.2952,185.7
137.3115,340.1
137.3222,165.5
137.3299,87.1
137.3474,71.9
137.3487,20
137.3801,54.5
137.43,157.7
137.4348,266.2
137.4846,89.5
137.54,74.8
137.544,312.4
137.5657,114.2
137.5838,97.5
137.6095,401.4
137.6386,134.4
137.6422,79.4
137.661,134.8
137.7095,127.8
137.7141,145.7
137.7799,149.9
137.7912,126.1
137.9397,409.7
137.951,253
137.98,148.5
137.9904,90.8
137.9947,241.9
138.0121,60.4
138.0525,6655.9
138.066,22.9
138.0861,659.4
138.1384,74.1
138.1618,120.7
138.186,128.8
138.1875,559.2
138.1936,80.1
138.1953,243.6
138.1971,211.3
138.2373,249.6
138.291,207.1
138.3106,219.2
138.3886,90.9
138.3963,312
138.4055,64.3
138.4615,16.6
138.7117,183.9
138.7244,342.5
138.7567,63.9
138.7842,300.9
138.7866,70.4
138.791,211.8
138.8006,444.2
138.8049,791.7
138.8711,21.6
138.8775,63.5
138.9063,2325.1
138.9381,447.3
138.9552,243
139.0083,23.4
139.0219,74.5
139.0277,157.9
139.0637,339.4
139.0935,842.3
139.1104,299.8
139.1206,77.4
139.1739,288.6
139.1882,345.5
139.2437,294.5
139.268,283.9
139.2948,533.6
139.3473,94.8
139.3709,194
139.3902,990.1
139.3925,208.9
139.4148,565.8
139.4747,206.5
139.5751,90.2
139.6048,135.3
139.6225,820.5
139.6335,908.8
139.647,62.3
139.6625,588.2
139.6963,119
139.6971,148.9
139.786,21.2
139.7958,286.3
139.8256,113.7
139.8645,80.5
139.9079,223.3
139.9246,270
139.9791,192.5
139.997,221.7
140.0164,2848.3
140.0496,102.2
140.0681,6970.8
140.1125,256.3
140.1341,118.9
140.1821,274.3
140.2259,66.8
140.261,21.7
140.3046,256.6
140.3074,97
140.3288,253.7
140.3407,112.9
140.3862,292.4
140.4046,229.5
140.452,60.4
140.4592,107.7
140.4705,517.4
140.5102,219
140.5177,250.4
140.5349,98.4
140.6203,20.3
140.6233,223.4
140.6389,142.7
140.7047,276.8
140.7074,333.2
140.7466,475.2
140.7541,71.3
140.8159,19.8
140.8176,201.2
140.8194,459.1
140.896,307.8
140.9033,1524
140.922,425.3
140.9525,48
141.0004,25480.9
141.0198,151.1
141.2381,465.3
141.3522,486.7
141.4285,379
141.4844,71.7
141.4979,370.3
141.5165,84.3
141.5357,366.7
141.5574,129
141.5679,665.5
141.6124,731.3
141.648,203.8
141.694,59.9
141.7303,114.3
141.7608,159.1
141.8225,627.8
141.8445,299.3
141.8949,305.5
141.9064,194.7
141.9138,116.7
141.9207,85.3
141.9949,116.1
141.9976,752.2
142.0038,393.6
142.0122,35.2
142.0218,233.6
142.0262,117.2
142.0358,266.4
142.0485,322.2
142.1256,165.8
142.1535,17.7
142.2179,161.3
142.2232,245.1
142.2476,775.7
142.3411,22.3
142.3704,181.5
142.3946,399.9
142.3989,453.6
142.4383,816.1
142.4523,708.6
142.5039,266.2
142.5482,159.9
142.5681,157
142.58,85.9
142.6135,405
142.62,159.7
142.735,491.1
142.7561,164.7
142.8103,212
142.817,391.8
142.8811,80.1
142.885,61.1
142.9385,3062.8
142.9614,336.5
142.979,20.3
142.9838,137.7
142.9883,317.2
142.9962,222.5
143.0031,309.2
143.0158,68.1
143.0611,72.8
143.0815,63.3
143.1766,83.2
143.1834,168.5
143.3311,257.6
143.4281,182.1
143.4335,450.5
143.4389,235.8
143.4538,189.7
143.5241,109.4
143.5522,302.2
143.5741,121.6
143.5848,18.5
143.7111,309.7
143.721,199.8
143.7862,450.5
143.7874,419.7
143.7936,256.1
143.9278,409.5
143.9359,57.3
143.9977,346.3
144.0106,478.5
144.0456,103
144.0508,279.5
144.0574,836.4
144.0599,67.3
144.0629,397.7
144.0999,143.4
144.1021,715.2
144.1055,64.4
144.1576,387.3
144.1846,455
144.2389,101.2
144.3293,80
144.3504,91.5
144.3533,157.4
144.4562,414.2
144.5445,604.6
144.5644,115.8
144.569,112.1
144.5899,256.2
144.6085,542.3
144.6242,334.8
144.6327,125.5
144.654,305
144.6566,616.3
144.7211,64.1
144.7487,69.6
144.7898,67.1
144.829,65.4
144.8856,114.9
144.9294,697
144.9807,5327.5
144.985,252.1
145.0215,225.9
145.0264,104
145.0282,518.2
145.1326,489.4
145.1355,277.1
145.1523,167.3
145.1606,424.7
145.2115,73.7
145.2293,63
145.2527,204.1
145.3109,375.7
145.3839,680.9
145.4677,217.7
145.49,48.3
145.5038,98.3
145.526,118.3
145.5658,20.3
145.5871,390.5
145.5984,168.6
145.6138,64.6
145.7393,76.8
145.8163,19.6
145.8314,818.7
145.8431,232.5
145.8529,30.4
145.8726,174.2
145.8828,56.9
145.8846,205.3
145.9118,141.2
145.9608,216.2
145.9664,22
145.9757,992
145.9908,176.7
146.0006,307
146.0123,1313.9
146.0188,20166.2
146.0262,84.6
146.0503,413.6
146.0652,23
146.0884,250.7
146.092,115.8
146.1152,162.8
146.1171,143.8
146.1374,111.6
146.138,105.8
146.1387,81.3
146.1754,171.2
146.1776,692.9
146.213,213
146.3134,241.1
146.3379,22.2
146.3602,414.6
146.3728,200.2
146.4006,136.5
146.4154,218.1
146.4567,118.8
146.4893,57.9
146.511,58.4
146.5147,189.8
146.5285,20.8
146.6579,186.9
146.7104,65
146.7286,315.7
146.7535,127
146.7888,295.6
146.8335,77.4
146.9741,74.2
146.9817,72189.7
147.019,424
147.0341,173.8
147.0538,79.3
147.0608,644
147.0638,322.4
147.0764,39374.5
147.0793,109.9
147.1042,207.5
147.1127,39539.7
147.1167,865.8
147.1794,245.6
147.2162,18.2
147.2279,163.9
147.2321,21
147.3698,277.4
147.3907,106.2
147.3926,464.8
147.4252,17.5
147.4443,327
147.472,26.9
147.5046,613.6
147.5138,89.6
147.5276,58.5
147.5317,509.7
147.56,122.4
147.5813,766.9
147.5891,125.3
147.6017,18.9
147.6298,69.1
147.6494,95.9
147.6846,89.7
147.7179,623.5
147.8129,207.1
147.8171,96.9
147.8471,317.1
147.8527,74.9
147.8842,83.7
147.8905,121.2
147.9773,206.9
147.9855,226.5
148.0429,95.4
148.0799,266.1
148.112,23.3
148.1164,430.3
148.2629,296.6
148.3189,175.5
148.3431,109.8
148.3761,348.3
148.4088,19.4
148.4385,19
148.5321,787.8
148.5551,83.9
148.5776,65
148.5986,91.3
148.6684,370.7
148.7213,146.4
148.7943,225.3
148.8209,158.7
148.8615,533.2
148.8651,79.8
148.9492,302.3
148.961,1326.3
148.9686,278.6
148.9767,428.7
148.9886,47.2
149.0025,55.6
149.0122,20.1
149.0184,7066.1
149.0233,5549.6
149.0448,24.6
149.0815,176.5
149.0908,166
149.117,64
149.1332,218
149.2595,789.3
149.3142,261.5
149.4107,72.3
149.415,194.2
149.4204,409.6
149.4253,196.2
149.4279,119
149.4773,144
149.479,795.7
149.5508,92.4
149.5583,455.5
149.6998,516.8
149.7125,140.1
149.8768,82
149.8799,22.8
149.9471,120.1
149.9821,182.2
149.9871,22.2
149.9927,3160.7
150.0136,3760.7
150.0267,182
150.0709,108.1
150.0969,115.4
150.122,774.6
150.1303,101.6
150.182,19.1
150.2289,108.8
150.2682,138.4
150.2899,212.1
150.3044,91.1
150.3807,176.7
150.4002,117.4
150.503,399.6
150.5362,225.4
150.6811,121.2
150.735,141.5
150.762,469.5
150.7695,522.8
150.8448,255.3
150.8874,59.6
150.9688,104
150.9767,33247.5
150.9841,2315
151.0479,3175.5
151.0796,778.3
151.1545,186
151.1809,112.4
151.2281,270.9
151.2947,242.3
151.3502,162.5
151.3551,105.8
151.3964,78
151.4337,90.2
151.4557,87.7
151.4749,135.3
151.4882,61
151.5071,165.4
151.5355,437
151.5639,19.3
151.5853,348.3
151.7404,244.8
151.7603,65.7
151.7908,303.2
151.9252,474.1
151.9272,247.4
151.9755,414.1
151.9845,22.9
151.9875,33
151.996,85.8
152.0017,219.6
152.0059,19
152.022,2856.1
152.0318,5355.7
152.0977,160.3
152.1369,112
152.1867,67.1
152.2208,23.2
152.233,142.6
152.3985,127.4
152.429,90.8
152.4965,387.9
152.5003,636.1
152.5638,277.5
152.5841,98.6
152.6432,114.6
152.6713,363.6
152.7075,90.8
152.7137,143.4
152.729,258.4
152.7405,553.2
152.826,876.2
152.8779,534.8
152.8941,234.3
152.9002,380.7
152.9749,1060.8
152.982,157.3
153.0084,315.8
153.0253,466.4
153.0809,64.7
153.1405,171.8
153.1612,434.3
153.1952,161.6
153.2492,117.1
153.2837,186
153.2918,149.8
153.3478,84.2
153.3948,17.9
153.4256,85.1
153.4292,230.1
153.459,247
153.4637,1151.5
153.5175,133.9
153.6077,514.1
153.7976,424
153.9116,186
153.9368,89.6
154.0111,417.4
154.0167,489.4
154.0264,597.5
154.056,154.3
154.0585,380.8
154.0835,517
154.4362,136.9
154.4383,427
154.4423,100.2
154.445,842.6
154.5173,403.2
154.5819,292.1
154.603,62.4
154.8122,429.5
154.8378,255.5
154.8804,570.6
154.9075,33.7
154.9111,219.4
154.924,94.5
155.0269,91.4
155.0428,3048.3
155.0492,69
155.054,3031.1
155.0568,91.5
155.0791,2969.2
155.0933,19.6
155.148,522.1
155.2057,317.4
155.3282,477.5
155.3756,378.4
155.3948,495.4
155.4071,269.2
155.4511,384.4
155.5158,241.5
155.5226,137.5
155.6294,619.8
155.6758,251.8
155.6857,336.6
155.7058,574.9
155.801,176.6
155.8786,466
156.0104,37.7
156.0266,84.3
156.0361,445.9
156.0421,5180.1
156.0767,43764.9
156.1299,74.9
156.1384,21.7
156.1547,183.4
156.2725,212.4
156.4329,100.8
156.4732,177.4
156.5269,138.6
156.6147,63.3
156.6311,230.7
156.695,74.9
156.7048,268.9
156.7157,69.1
156.7451,171.8
156.805,96.7
156.8303,96.9
156.8336,660.2
156.8422,259
156.9063,19.2
157.0013,224.4
157.0058,1018.6
157.0282,269.4
157.0334,62.9
157.0475,416.3
157.1443,120.2
157.1802,332.1
157.2,148.1
157.3352,96.3
157.3927,90
157.4026,120.2
157.4168,236.9
157.4178,222.1
157.4331,147.8
157.4873,83.1
157.5007,82
157.5338,88.1
157.5557,268.1
157.6102,19.8
157.6349,324.6
157.6456,77.2
157.7847,18.4
157.8077,282.8
157.8086,213.9
157.8093,206.4
157.8592,134.6
157.8625,267.3
157.8684,877.3
157.8851,123.3
157.975,122.2
157.9784,177.7
158.0073,66.6
158.0126,119.4
158.0201,319.5
158.027,6646.9
158.0558,75.5
158.0793,435.1
158.0884,781.9
158.1263,149.3
158.1601,641.6
158.1881,195.6
158.2111,60.8
158.2671,404.5
158.3085,816.2
158.324,587.8
158.3608,102.8
158.3639,176.4
158.3643,175
158.3828,19.4
158.389,592.3
158.4229,316.1
158.4545,317.1
158.4565,297.5
158.478,75.9
158.525,81.4
158.5372,195.5
158.6633,175.5
158.713,930.1
158.7597,296.8
158.912,55.7
158.9411,229.3
158.9551,162
158.964,6268.5
158.9965,11571.9
159.0094,328.9
159.0304,154.7
159.0455,395.9
159.0523,670
159.1169,60.1
159.2262,145.8
159.2443,150.5
159.258,632.6
159.2652,188.8
159.3281,227.9
159.3482,106.3
159.389,90.3
159.447,148.2
159.4631,169.3
159.5274,71.6
159.5998,624.6
159.6035,81.7
159.6074,160.3
159.6705,97.2
159.6934,66.4
159.7197,338.2
159.7747,114
159.792,83.2
159.8077,393.4
159.9305,246.8
159.9382,567.3
159.965,569.6
160.0229,54.3
160.0345,12311.8
160.0604,84613.6
160.1634,112.8
160.1699,64.4
160.2494,493.3
160.3032,557.3
160.3458,58.2
160.3528,204.3
160.3803,17.8
160.4291,262.9
160.434,132.4
160.4448,195.9
160.4701,326.4
160.519,372.8
160.5227,19.1
160.5377,152.8
160.5614,616.1
160.5853,167.9
160.6013,175.7
160.6111,124.7
160.6233,426.1
160.6494,218.5
160.6549,668.9
160.6791,413.3
160.703,68.7
160.71,123.2
160.7793,218.4
160.8414,476.1
160.9293,239.5
160.9637,19.4
160.9795,63.8
160.9926,300
161.0183,342.9
161.0265,74.6
161.0638,3398.5
161.1044,81.1
161.1119,254.6
161.1286,198.5
161.1324,863.7
161.1595,330.2
161.2038,261.9
161.2258,608.4
161.2447,135.6
161.2586,67.2
161.2898,135.3
161.3271,200
161.3881,18.5
161.4359,87.1
161.4547,176.3
161.472,16.4
161.4747,164.7
161.5272,567.5
161.5485,205
161.6375,114.8
161.6468,49.8
161.6729,21.9
161.6766,23.7
161.6956,517
161.7064,93.4
161.7401,174.9
161.8048,245.4
161.8892,350.9
161.8991,336.7
162.0372,246.5
162.0456,376.9
162.0501,8282.1
162.0647,88.3
162.0673,217.3
162.107,158.5
162.1267,237.1
162.1519,300.7
162.2006,127.6
162.2918,17.4
162.3002,403.2
162.3293,121
162.4437,76.1
162.4671,229.8
162.4753,19.5
162.4869,129.1
162.4977,174.5
162.4998,339.7
162.5097,236.4
162.5459,453.7
162.5555,99.8
162.5656,20.6
162.605,102.6
162.659,601.1
162.669,631.9
162.6893,296.8
162.6942,140.2
162.7298,424
162.7591,118.3
162.7647,297
162.7905,420.3
162.8106,477.9
162.8309,322.9
162.8775,50.1
162.9557,3556.7
162.9709,321.8
162.9927,19.2
163.0154,1285
163.0342,1844.3
163.1253,418.4
163.1285,496.4
163.1485,21.4
163.171,527.2
163.1716,519.9
163.3339,100.2
163.3638,97.8
163.3775,284.6
163.5558,22.3
163.5727,622.9
163.6489,92.1
163.6863,63.9
163.7155,185.2
163.7257,381.2
163.7383,80.6
163.8063,65.5
163.9204,80.1
163.9507,201.7
164.0042,358.1
164.0294,10162.2
164.0447,319.8
164.172,726.8
164.2634,454.8
164.3031,58.9
164.3667,125.9
164.37,446
164.3725,237.9
164.3829,804.9
164.4768,20.2
164.8539,524.5
164.9092,350.1
164.9205,3896
164.93,12516
164.9333,72.8
164.9351,1168.1
164.9846,53.3
164.9924,4368.6
164.9994,437.9
165.0015,136.5
165.0131,885.8
165.0904,518.4
165.1836,88.3
165.2209,125.3
165.2538,83
165.2775,823.2
165.3252,239.5
165.3967,17.4
165.443,189.2
165.4827,676.9
165.4891,60.4
165.4949,171.8
165.5513,534.5
165.6487,72.6
165.7325,320.5
165.7668,100.3
165.7736,67.4
165.7808,53.2
165.7868,517.8
165.8346,236.6
165.8905,354.3
165.9374,230.8
165.9401,419.3
165.9562,166.8
165.971,24.4
165.9789,989.5
165.9877,2061.5
165.995,843.2
166.0177,196.5
166.1762,63.9
166.1892,20.9
166.2552,58.7
166.2603,208.4
166.2733,128.2
166.2822,306.2
166.3169,70.8
166.359,118.9
166.3845,163.1
166.396,115
166.4273,81.4
166.4338,912.6
166.4915,72
166.4936,83.9
166.5235,190.1
166.6333,18.8
166.6343,19.6
166.6378,17
166.7126,84.7
166.7163,71.4
166.7244,325.2
166.7328,75
166.8137,301.1
166.8485,87
166.8636,95.8
166.9161,123.9
166.9507,11619.1
166.9629,642.6
167.0001,37.6
167.0218,10661.8
167.0799,20.1
167.1024,444.5
167.1069,136.4
167.216,221.4
167.2484,271.5
167.2679,22
167.3252,96.3
167.3534,149.3
167.3857,98.4
167.3914,80.7
167.4013,149.1
167.5086,306.1
167.5128,228.5
167.53,712.5
167.6358,59
167.7043,211.7
167.7138,203.6
167.7507,148.3
167.7674,99.5
167.7982,75.2
167.8236,87.6
167.843,512.9
167.9251,135.8
167.9346,67.6
167.9541,343.2
167.9796,131.5
167.9923,386.7
167.9944,2725.9
168.006,475
168.0417,229.3
168.0464,81.6
168.0481,22
168.0653,444.1
168.1087,54.1
168.1155,129.4
168.1752,106.4
168.2474,85.6
168.265,370
168.2966,125.5
168.3698,142.1
168.4021,78.2
168.4296,17.5
168.4672,420.4
168.4875,83.3
168.5155,108.8
168.5593,857.2
168.8145,384.9
168.8484,65.9
168.8714,74.8
168.8862,115.2
168.9193,151.6
168.9252,30.5
168.9374,25
168.9487,636.2
168.9529,96.4
168.959,67.9
169.0554,65.1
169.0584,76324.3
169.0651,211.2
169.0847,99.5
169.0948,3382.3
169.1149,95.6
169.1393,95.8
169.2189,132.2
169.3298,22
169.3347,76.5
169.3626,277.4
169.3822,835.7
169.3979,402.4
169.4029,80.2
169.4481,460
169.4883,126.3
169.5667,804.3
169.6255,101.8
169.6703,187.4
169.6864,223.7
169.79,717.1
169.8284,406
169.8391,23.1
169.856,68.6
169.8868,67.9
169.9038,89.3
169.9321,49.9
169.9669,75.3
169.9859,575.6
169.991,28.3
170.0247,719.9
170.0292,140.2
170.0326,939
170.0617,1163.5
170.0924,16057.4
170.1087,140.9
170.1186,93.5
170.1405,514.9
170.1554,853.5
170.2655,186.2
170.2704,129.5
170.3313,619.4
170.41,196.8
170.4163,90.6
170.5546,529.2
170.5671,335.5
170.5777,89.7
170.6219,562.8
170.7076,199.6
170.7556,154.1
170.8544,3785.3
170.9095,225
170.9141,67.4
170.9982,21.7
171.0167,3006.6
171.0215,324.2
171.028,130.8
171.0308,294.6
171.0643,570.9
171.0934,19.8
171.1336,364.5
171.2073,154.1
171.2274,76.5
171.255,897.5
171.2692,122.2
171.3739,681.3
171.4084,369.4
171.5312,195.1
171.5654,105.7
171.6314,919.8
171.7803,175.5
171.8339,60.3
171.9349,137.7
171.9433,120.2
172.0281,295
172.0903,77.8
172.114,659.3
172.1413,577.1
172.1534,640.1
172.2825,192.3
172.326,299.2
172.502,496.1
172.7558,111.1
172.7604,211.5
172.8203,336.1
172.8309,179.2
172.8375,60.8
172.8439,16.8
172.8513,1608.1
172.8572,65.9
172.8915,414.3
172.8966,72.4
172.9841,94.4
173.0026,537.1
173.0268,354.6
173.037,233.7
173.0599,17.3
173.065,696.7
173.0964,172.1
173.133,154.7
173.1613,126.2
173.1879,66.1
173.1966,168.9
173.2365,114.4
173.2847,94.4
173.3081,175
173.3407,146.8
173.3607,314.6
173.3787,21.5
173.411,22.5
173.4815,573.5
173.4933,19.8
173.5271,98.9
173.6016,157.7
173.7113,408.9
173.7281,323.5
173.773,597.1
173.8032,161.9
173.8697,23.6
173.9441,70.6
173.97,287.2
173.9826,76.8
174.0008,25.3
174.0445,101.6
174.1169,85.8
174.178,119.1
174.2124,263.3
174.2876,98.7
174.2934,956
174.3159,578.3
174.3303,106.1
174.3587,124
174.4058,192.7
174.4311,613.8
174.5175,17.9
174.5217,58.2
174.6409,120.5
174.6798,64.4
174.7042,235.1
174.7263,236.5
174.7468,151.5
174.8091,98.4
174.8963,323.7
174.9003,101
174.9201,227.3
174.9282,283.1
174.9379,947.9
174.9455,424.1
174.9688,23.2
174.9843,96.4
175.0032,88.7
175.0341,3439.1
175.0366,398.8
175.0454,5124.2
175.0578,703.1
175.0662,80.9
175.0796,424.5
175.1122,83.9
175.119,95384.3
175.1685,158
175.1904,211
175.2583,89.6
175.2828,76.1
175.3703,209.5
175.3794,87.1
175.4279,236.7
175.5424,231.5
175.5535,203.8
175.5774,124.3
175.6976,132.8
175.715,137.8
175.7628,512.5
175.9388,84
175.9661,18.4
175.993,18.2
176.0005,24.2
176.0085,2873.1
176.0116,347.4
176.0586,424.3
176.0658,18019.2
176.1029,377.3
176.1165,480.5
176.1223,2623.6
176.1453,764.4
176.166,237.4
176.2411,902.6
176.2589,384.7
176.2844,135.7
176.3131,192.8
176.3733,152.8
176.4098,114.2
176.4273,135
176.4741,399.9
176.4774,421.9
176.4909,124
176.495,162.4
176.5493,74.7
176.5694,113.7
176.5909,404.4
176.6072,96.3
176.6097,86.6
176.6569,408.2
176.7006,360.2
176.7418,75.3
176.7831,16.6
176.7959,243.7
176.8056,60.9
176.8271,382.7
176.8288,426
176.8555,17.8
176.8645,172.7
176.8749,21.3
176.9092,266.1
176.9411,254.7
176.9822,174.7
177.0074,26.1
177.0187,154.6
177.0204,65.8
177.0246,2249.8
177.061,2762
177.0677,83.5
177.0874,133.5
177.1272,65.8
177.1417,55.4
177.2136,162.7
177.225,409.1
177.2719,327.6
177.4336,173.3
177.4609,74.6
177.6272,293.2
177.6875,137.1
177.7142,291.1
177.8397,177.7
177.9477,354.9
177.9548,365.1
177.9712,124.5
177.9732,80.2
177.985,649.3
178.0087,12253.9
178.0241,6737.4
178.0587,7251.6
178.1234,433.6
178.1324,236
178.136,238.4
178.147,285.3
178.4062,281.8
178.43,351
178.4324,314.1
178.452,267.5
178.5507,17.1
178.6228,145.4
178.6604,673.8
178.6825,79.6
178.7433,109.3
178.7512,61.3
178.7901,470.4
178.8014,123
178.8525,82.8
178.8833,305.2
178.9217,32.8
178.958,329.2
178.9641,68.7
179.0028,90.6
179.0081,1005.6
179.0191,292.9
179.0652,92.9
179.3419,82.7
179.3489,147.5
179.3942,387
179.4447,66.7
179.4591,241.3
179.4659,255.4
179.4706,17.5
179.476,235.3
179.5451,320.8
179.6778,116.7
179.7148,69.4
179.741,126
179.9232,115.4
179.9353,18.5
180.0034,5888.8
180.0105,68.3
180.0321,586.8
180.0473,154.6
180.1645,740.2
180.2418,313.9
180.2518,85.8
180.3587,407.9
180.4237,828.9
180.5335,82.5
180.5531,345.3
180.6316,153.9
180.6956,150.4
180.7587,764.6
180.8068,815.3
180.8882,247
180.8946,2346.3
180.9039,6488.4
180.9276,111.5
180.9479,96.1
180.9664,1422.7
180.987,517
181.0156,20.9
181.0201,77.4
181.055,203.7
181.0649,4763
181.1315,234.6
181.2185,117.9
181.2556,20.4
181.3144,91.7
181.3434,120.2
181.3608,438.5
181.4265,98.9
181.4417,157.4
181.4959,243
181.5792,81.8
181.6064,219.2
181.6087,87.8
181.6168,131.7
181.6271,143.9
181.6981,794.7
181.7169,326.3
181.8062,300.2
181.8205,122.5
181.8461,350.7
181.9469,20.6
181.9512,264.7
181.9901,236.8
182.011,20.1
182.0424,33646.3
182.0658,353.6
182.124,20
182.1541,848.7
182.1683,204.8
182.2125,133.8
182.2197,303.5
182.2471,71.3
182.3047,120
182.4768,511
182.513,18.5
182.6714,18.2
182.7285,221.8
182.7402,114
182.7419,378
182.7462,107.5
182.8286,140.3
182.8487,723.8
182.8512,925.4
182.9026,54.7
182.9588,143.6
182.9788,390.9
182.9881,20.2
183.0027,289.4
183.0446,1555.1
183.099,376.8
183.102,339.3
183.1524,103.1
183.1565,305.9
183.2004,17.1
183.2052,586
183.253,285.4
183.2665,127.4
183.2897,63
183.3512,126.6
183.4069,779.8
183.413,398.3
183.4597,82.6
183.5564,248.4
183.6356,83.9
183.6625,97.1
183.7326,67.5
183.736,69.5
183.7508,267.9
183.8112,222.3
183.9024,347
183.9095,88.6
183.9646,139.4
184.0371,256.9
184.049,285
184.0651,150.4
184.0682,972.6
184.0734,2463391.8
184.0808,210
184.0872,16.8
184.0972,138.2
184.1097,258.4
184.169,93.4
184.1821,713.2
184.184,139.6
184.2075,573.3
184.2434,130.3
184.3303,425.9
184.4267,412.1
184.4869,163.6
184.5229,65.6
184.6858,241.2
184.7038,259.7
184.7536,145.1
184.8735,127.5
184.9297,39.4
184.9994,591.8
185.0046,277.3
185.025,343.2
185.0324,83350.5
185.0374,199.5
185.0661,70.2
185.0692,5251.8
185.0767,111909.7
185.19,95.5
185.1986,85.3
185.2334,171.4
185.2465,101.4
185.2635,85.3
185.3033,16.8
185.3438,17.6
185.4031,101.3
185.4761,305.2
185.4843,232.6
185.486,401.2
185.496,159.9
185.6014,67.9
185.6263,809.8
185.6806,252.6
185.7902,198.4
185.8376,63
185.9598,690.3
185.9985,784.6
186.0327,144.3
186.0358,1627.2
186.0776,13985.9
186.13,625.7
186.1483,866.1
186.1796,344
186.2751,336.6
186.3099,625.1
186.3657,190.7
186.3839,18
186.3967,122.2
186.6495,86.6
186.6729,492.5
186.683,276.9
186.6872,313.2
186.7774,103.7
186.8402,219.9
186.9118,1248.6
186.9764,107.3
187.0015,177.3
187.0305,3823.6
187.042,270.7
187.0452,387.4
187.0529,1885.3
187.0715,666.2
187.0799,63.6
187.091,79
187.3251,90.7
187.3314,62.1
187.3536,68.8
187.3935,508.4
187.4244,451.9
187.4991,23
187.5508,665.5
187.6544,321.7
187.6619,110.6
187.6788,586.2
187.7668,467.3
187.9454,209
188.0231,116.7
188.0355,595.5
188.0791,95
188.1074,422.1
188.1113,497.2
188.1385,216.1
188.1477,213.5
188.167,424.2
188.1797,386.8
188.1857,72.4
188.2803,134.1
188.2834,111.6
188.3273,742.7
188.3462,132
188.3824,123.8
188.3952,98.4
188.397,197.8
188.3976,192.8
188.4041,1084.5
188.5326,345.9
188.5372,660.5
188.5939,152.2
188.6069,218.9
188.8783,65.8
188.9123,212.9
188.9291,191.4
188.9852,88.9
189.0071,613.4
189.0162,824.4
189.021,28.7
189.0611,4037.5
189.0687,148.8
189.0871,4501.7
189.1352,171.1
189.2086,17.2
189.2172,94.2
189.3129,121.1
189.3527,69.4
189.4838,245.6
189.4938,125.2
189.5414,658.1
189.566,104.1
189.5994,53.4
189.6099,18.2
189.7051,255.3
189.8051,118.5
189.8442,200.3
189.8473,370.6
189.8571,88.4
189.8758,20.5
190.0093,81.6
190.0237,749.1
190.0553,61.8
190.0857,159.1
190.0898,386.5
190.1628,77.1
190.184,405.5
190.1976,421.5
190.2342,78.6
190.2371,332.2
190.2409,207.6
190.246,340.2
190.2554,19.2
190.2982,341.6
190.3805,240.4
190.4378,18
190.4478,287.7
190.4591,275.5
190.4755,567.8
190.5282,231.7
190.5833,76.3
190.6182,168.7
190.7334,410.4
190.7441,86.7
190.7542,415.2
190.7598,602.3
190.7901,69.7
190.8255,266.8
190.8727,174.6
190.9548,421.9
190.9585,413
191.0003,70.8
191.0082,2820.8
191.0404,74577.9
191.0643,157.1
191.0768,15661
191.1042,219.8
191.147,173
191.2437,122.6
191.2772,752.3
191.3034,391.8
191.3519,67.3
191.3829,55
191.4365,134.4
191.4836,339.3
191.5059,225.1
191.5508,63.9
191.6368,195.1
191.688,18.6
191.6914,374.8
191.7025,68.1
191.7067,588.1
191.7597,64.2
191.7945,82.3
191.8038,737.7
191.8402,79.8
191.8475,261.9
191.8676,83.1
191.9147,86.5
191.9825,365
192.0303,379.6
192.0398,8730.2
192.0437,451.3
192.0849,75.6
192.1614,100.7
192.2923,89.2
192.4132,139.6
192.4404,357.7
192.5189,18.4
192.5607,239.9
192.5735,315.4
192.6682,122.4
192.6708,243.5
192.7042,96.6
192.7419,143
192.7614,52.7
192.8307,259.6
192.8817,17.8
192.911,82.6
192.9566,242.2
192.9714,103
192.9798,683.2
192.9953,496.6
192.9987,752.1
193.0159,101.8
193.0286,212.9
193.0352,1040.7
193.0733,108
193.1158,234.4
193.1217,88.8
193.1443,252.5
193.1961,360.4
193.1983,53.7
193.2031,419.1
193.2155,260.9
193.2819,367.8
193.3006,67.5
193.3461,217.2
193.4113,163.5
193.4287,753.5
193.5785,71.3
193.5991,74.2
193.6624,60
193.7007,408.5
193.7425,343.5
193.7955,470.5
193.8051,90.9
193.8964,63.8
193.9658,27.2
193.9788,19.7
194.0049,2027.8
194.0171,111
194.0223,2283.7
194.0327,2812.7
194.1538,33.8
194.1737,198.1
194.1798,150.1
194.2443,120.4
194.2513,66.9
194.2717,72.7
194.4507,59.8
194.5951,208.4
194.6053,430.1
194.753,411.2
194.7989,383.3
194.8052,23.2
194.8622,104.8
194.8914,238.9
194.9039,108.2
194.919,303.3
194.9427,643.6
194.957,106.9
194.9632,186.7
194.9827,488
195.0028,544.4
195.0113,24.5
195.0218,132.4
195.0506,823.6
195.0818,96.5
195.119,180.6
195.1283,307.1
195.1556,186.5
195.1692,324.9
195.1999,357
195.2163,64.9
195.2193,132.5
195.3598,387.5
195.5801,176
195.585,407
195.7109,19.3
195.7389,91.7
195.745,67.1
195.8307,62.2
195.8714,22.8
195.9233,336.1
196.0006,409.5
196.0186,386.1
196.0792,314.6
196.0918,99.4
196.1046,233.5
196.1698,366.2
196.195,18.3
196.2032,495.4
196.2371,347.4
196.2797,283.6
196.31,150
196.42,89.7
196.4764,428.5
196.4879,385.4
196.4973,67.1
196.5169,139.2
196.5873,417.8
196.6275,106.1
196.7034,80.2
196.7747,104.2
196.8448,19.8
196.8652,7782.3
196.8686,393.1
196.8779,2334
196.8925,342.5
196.9224,610.9
196.9324,96.8
196.9443,345.6
196.9748,146.8
197.0237,74.9
197.0322,297.5
197.0372,295.8
197.0412,179.7
197.2835,92.6
197.3117,82.5
197.4369,214.1
197.4456,211.9
197.4743,55.8
197.5107,373.6
197.6527,72.1
197.6673,613.2
197.6713,115
197.7008,67.5
197.8162,65.6
197.8187,18
197.8748,87.3
197.8776,298
197.9434,178.9
197.966,113.8
198.0851,7696.1
198.1351,128.6
198.1475,151.7
198.1853,6588.9
198.1991,113.1
198.2313,80.6
198.2696,55.8
198.5344,64.3
198.5569,117.1
198.5703,18.9
198.5858,19.3
198.5902,839.5
198.6736,423
198.6803,199.4
198.6917,445.3
198.7195,120.7
198.7315,325.8
198.8622,7145
198.8681,20.6
198.8775,240
198.8958,213.4
198.9172,148.6
198.951,158.6
198.9777,627.8
199.0166,1016.1
199.0213,855.7
199.0445,180.9
199.0756,547.8
199.0804,55.4
199.1297,19.4
199.1548,119.7
199.1753,61
199.1888,292.7
199.2158,79.8
199.2225,19.1
199.3732,134.5
199.4053,187.9
199.4283,127.1
199.5522,183.9
199.5598,405.2
199.6688,421.6
199.6751,195.3
199.7514,301.7
199.7731,429.5
199.7969,19.6
199.8432,65.6
199.8537,731.3
199.8704,17.5
199.8789,120.2
199.944,115.8
199.9651,78.8
199.9907,32025.6
200.0407,6604.7
200.0594,61
200.0914,103.4
200.108,785.9
200.1427,309.1
200.1713,653.9
200.1832,361.2
200.1913,10458.1
200.1967,361.7
200.2064,163.6
200.2726,802.2
200.2994,96.6
200.3793,217.5
200.4541,230.4
200.5654,197
200.6152,433.3
200.6552,379.1
200.6651,289.2
200.6724,397.8
200.7598,172
200.7848,998.4
200.8129,379.9
200.8374,131.7
200.8427,22.8
200.8592,1403.7
200.8687,415.9
200.8867,81.7
200.8945,274.3
200.9232,138.6
200.9923,60.5
201.0129,826.9
201.052,153.4
201.0547,249
201.0872,82.9
201.0924,382.1
201.2032,419.4
201.2793,333.1
201.2832,64.9
201.3528,69.6
201.363,516.6
201.3937,89.2
201.532,176.1
201.7678,138.4
201.8055,120.4
201.8121,249.1
201.8648,27.6
201.9067,116.4
201.9214,173
201.9956,73.9
202.016,45.7
202.0323,657.4
202.0831,20.2
202.1235,92.9
202.1627,121.3
202.1796,79.4
202.2105,102.2
202.2186,313.3
202.4417,726.2
202.465,526.4
202.5482,15431
202.5562,133.5
202.5733,327
202.5808,202.2
202.5969,61.2
202.6336,278.5
202.8224,107.2
202.8953,49.8
202.9057,16.7
203.0323,681
203.0527,2164710
203.0651,124.8
203.0768,10707.7
203.1028,193.5
203.1792,365.6
203.337,18.9
203.3923,125.2
203.4404,122.2
203.4523,227.3
203.5228,416.2
203.5595,155.5
203.5804,301.4
203.6752,68.5
203.6935,81.6
203.7268,85.7
203.8332,87
203.8557,102.9
203.9228,298.8
204.0092,977.6
204.0245,56437.9
204.032,75.5
204.0464,87.3
204.056,112852.5
204.0632,2369.3
204.0848,133.5
204.1139,93.3
204.1567,19.6
204.1742,107.6
204.3414,68.6
204.3792,201.4
204.5156,67.5
204.531,118.7
204.54,19.1
204.7824,119.6
204.791,200.3
204.8887,72.7
204.8931,63.6
204.9164,150.4
204.9282,439.2
204.9918,20.1
205.0021,728.2
205.028,849.5
205.057,19555.7
205.069,617.9
205.0837,23.5
205.1182,100.4
205.1924,94.5
205.1959,395.9
205.2281,764.6
205.2447,279
205.436,262
205.5314,242.8
205.5664,402.4
205.598,68.4
205.6271,340.4
205.7325,60.1
205.7954,337.8
205.8,348.2
205.8026,410.2
205.8077,159.3
205.9125,21.4
205.9297,205
206.0063,195.7
206.0186,18.6
206.0476,120.2
206.0556,1473.3
206.0834,463.5
206.1902,137.8
206.3517,149.4
206.5335,18.2
206.5664,364
206.5745,161.2
206.6145,176.5
206.6679,407.9
206.6949,201.7
206.6981,165.7
206.7714,403.3
206.7821,147
206.8719,554.6
206.8877,79.7
206.894,18487.7
206.9168,207
206.9216,66.9
206.982,1193.9
206.9977,133
207.0143,50419.9
207.0442,449.4
207.0506,5071.1
207.1073,548.8
207.227,221.4
207.5318,264
207.5987,90.3
207.6118,85.8
207.8408,17.4
207.8849,129.7
207.9907,1955
208.0082,111
208.0135,1214.2
208.0172,826
208.1305,840
208.2511,654.7
208.397,185.8
208.4454,18.5
208.4809,248.4
208.5003,659.6
208.5078,86.5
208.5724,69.1
208.6761,443.9
208.7654,350.4
208.8305,131.2
208.8533,156.7
208.8646,116.5
208.8832,658.2
208.891,10037.1
208.9356,507
208.9475,182.9
209.0094,329.8
209.0123,2039.7
209.1275,195.6
209.1725,67.2
209.2069,194.2
209.2185,225
209.2519,182.6
209.2536,190.3
209.283,117.7
209.4167,300.7
209.4242,69.9
209.5336,269.3
209.5823,19.7
209.5956,330.9
210.1068,20.5
210.6405,939
210.6469,67.8
210.6961,85.1
210.7375,114.8
210.7928,316.9
210.7958,66.2
210.8068,154.8
210.8881,1320.6
210.9207,61.1
210.9405,292.5
210.9481,55.9
210.9901,202.6
211.0353,740.8
211.0378,18.5
211.0565,176.8
211.0648,553.2
211.069,1678
211.0874,214.3
211.2086,13119.1
211.2126,24064.3
211.2172,23795.5
211.2256,16254.8
211.2344,894.9
211.2605,122.2
211.2836,470.5
211.3508,78.4
211.3521,82.3
211.4513,20.6
211.4885,210.8
211.5445,19.1
211.6771,64.4
211.6989,185.6
211.7068,370.8
211.7551,254.8
211.7736,624.8
211.9139,752.1
211.9477,330.8
211.9587,21.5
211.9669,63.4
212.0245,306.5
212.0435,387
212.0738,107.2
212.2768,202.3
212.3216,304.4
212.429,412.4
212.4378,63
212.4858,163.8
212.5351,58.8
212.6036,287
212.6361,74.8
212.7308,188.1
212.7964,19.6
212.8102,871.4
212.8391,3157.8
212.911,132.1
212.9456,315.5
212.9745,371.5
213.0324,369.2
213.0468,136.2
213.0545,236.6
213.0749,680.4
213.0879,763.6
213.1129,168.6
213.1272,340.7
213.1303,105.6
213.2745,414
213.314,102.5
213.3177,126.3
213.357,18
213.3741,279.3
213.4042,313.5
213.4239,19.6
213.4254,19.1
213.4397,1057.5
213.5014,202.1
213.5981,851.4
213.6191,114
213.7354,148.4
213.7973,199.5
213.8002,167.5
213.8745,468.7
213.9113,353.6
213.9391,416.2
213.9622,1436.1
213.978,179.8
213.9849,305.5
214.0032,235.5
214.0062,1131.8
214.0395,82.1
214.059,11339
214.0898,886.9
214.1684,76.8
214.1961,491.5
214.2052,381.3
214.2201,122.2
214.3051,456.1
214.365,272.5
214.4848,131.5
214.5509,899.3
214.5631,229.2
214.6302,91.5
214.6457,126.4
214.6891,256.3
214.8362,2678
214.8556,175.9
214.8735,29.7
214.8828,64.2
214.8927,1221.1
214.9101,134.8
214.9177,66.2
214.9652,30.4
214.9886,143.7
215.0152,96.2
215.0325,96.6
215.0479,1468
215.0751,96.5
215.0865,106.5
215.0932,72.7
215.1122,65.6
215.1774,523.7
215.1792,489.2
215.1822,146.6
215.1848,657.7
215.3619,422
215.4443,468.4
215.4672,651.6
215.5224,125.3
215.5712,77.2
215.6052,114
215.6223,83
215.7651,76.7
215.8209,122.2
215.834,203.9
215.8456,421.6
215.9581,23.9
216.0146,5616.3
216.0244,239.2
216.0676,315.4
216.0708,65
216.1266,210.8
216.1505,73.1
216.1868,206
216.2163,20.3
216.2258,151.5
216.3012,329
216.3042,180.2
216.4368,157.5
216.5153,89.1
216.6854,19.3
216.7657,62.7
216.8549,155.4
216.9228,37905.7
216.948,83.2
216.9848,20.2
217.0069,384.7
217.0272,832.1
217.0563,391.6
217.0817,332.1
217.1465,85.4
217.1593,69
217.3461,18.4
217.3909,154.7
217.6556,88.6
217.7879,483.7
217.8541,90.4
217.9698,81.9
218.0714,173.4
218.0929,108
218.1761,95.6
218.1799,88.5
218.2723,105.7
218.3069,415.9
218.3423,376.5
218.4256,112.5
218.4306,124.9
218.5389,275.3
218.5776,250.6
218.6043,393.3
218.6645,591.5
218.6945,1140.2
218.7113,20.1
218.8052,124.9
218.8207,20.6
218.8383,751.6
218.8675,68.4
218.8883,65.8
218.9047,31.4
218.9199,12442
218.9398,395.9
218.9567,158.9
218.9729,480.6
219.0178,2685.1
219.0209,641.7
219.0267,2304095.3
219.0829,4426
219.131,123.7
219.1822,553.7
219.2148,266
219.2339,243.9
219.2748,465.2
219.3263,790.5
219.3962,494
219.4619,215.8
219.5368,76.5
219.5477,473
219.5799,98.3
219.5842,84.4
219.661,710
219.6942,588.2
219.7115,102.6
219.7494,18.6
219.7636,441.9
219.958,16.9
219.9679,90.6
219.9839,957
219.9984,998.3
220.006,22
220.03,128318.5
220.0371,5446.8
220.0468,190.4
220.067,4012
220.1674,606.2
220.177,18.7
220.2223,280.6
220.2248,22.9
220.2281,448
220.4833,18.7
220.5576,98.6
220.6938,561.6
220.7661,291.7
220.8189,170.7
220.8275,68.5
220.8869,695.3
220.9061,25.7
220.9093,780.8
220.934,36.8
220.9382,118.5
220.9866,93.9
221.0248,142963.5
221.0309,19427.4
221.037,119.7
221.051,1865.1
221.0592,174
221.0858,481.5
221.0872,428.1
221.1234,443.1
221.1549,148.7
221.2679,158.7
221.2737,50.2
221.2982,483.4
221.3209,134.9
221.4085,418.2
221.4264,279.8
221.433,106.6
221.5287,315.1
221.6964,86
221.7577,170.6
221.7668,114.8
221.9565,213.3
222.0189,112
222.028,5104.4
222.0892,1334.4
222.2774,98.2
222.2859,128.3
222.3453,153.7
222.3686,137.1
222.4279,85.2
222.4899,126.8
222.5485,160.8
222.5823,671.2
222.7653,277.5
222.7708,18.5
222.7779,156.4
222.8181,120.9
222.8679,15656.1
222.8794,1171.3
222.8989,317.2
222.9043,269.8
222.9112,21.5
222.9141,88.8
222.954,1517.7
222.9882,6457.1
223.037,603.8
223.063,23.4
223.088,20
223.1253,169.2
223.248,122.2
223.2641,240.1
223.2682,71
223.3066,465.2
223.3167,123.7
223.3627,87.8
223.49,625.3
223.5466,135.8
223.5807,874.8
223.7781,66.1
223.7928,255.7
223.7963,251.7
223.7999,292.2
223.8115,82.8
223.8579,501.9
223.9039,344.1
223.9536,20.6
223.9653,129.3
223.9947,384.5
224.0175,84.9
224.1014,92.9
224.1338,372.7
224.1484,368.1
224.1718,90.6
224.4453,422.2
224.4661,1134.4
224.489,156
224.5226,842.3
224.5549,317.4
224.7085,72.1
224.7707,124.2
224.7993,380.2
224.8649,8492
224.8805,145.8
224.9215,660
224.9274,41.3
224.9318,244.2
224.9488,200.7
224.9567,18.8
224.9623,64.7
225.0021,141.3
225.024,22.1
225.0548,24109.3
225.0849,196.3
225.1124,467
225.1581,73.3
225.3747,83.3
225.4762,117.4
225.644,128.2
225.7379,107.2
225.7816,297.1
225.8348,83.9
225.8878,88.3
225.9458,20.7
226.0062,1944
226.0241,10195.5
226.0451,12508
226.0588,78.9
226.0719,88
226.1031,132.1
226.1303,192.5
226.1674,457
226.2524,18.6
226.314,109.1
226.3328,86
226.4046,128.6
226.4497,103
226.453,21.4
226.4886,206.7
226.5901,70.3
226.7928,80.3
226.8192,295.4
226.8264,58.7
226.828,65.3
226.9515,18020.9
226.999,120
227.0312,428.8
227.034,630.5
227.0428,645.3
227.079,321.9
227.0866,125.4
227.1284,226.2
227.205,117.5
227.3078,75.9
227.4563,202.6
227.4915,64.5
227.4992,937.2
227.5876,21.9
227.5937,151.3
227.9617,146.2
228.0002,33.9
228.0562,1083.2
228.1162,197.7
228.1179,219.9
228.2296,94.7
228.2798,110.8
228.3554,178
228.4435,84
228.4833,86.4
228.519,410
228.5345,130.4
228.6091,82.3
228.636,78.3
228.7581,518
228.8147,409.3
228.8229,283
228.8921,105.3
228.9106,101.2
229.0256,425
229.0756,78.7
229.1111,632.5
229.1943,334.9
229.2244,267.9
229.2409,248.5
229.2768,120.7
229.3863,181.1
229.4277,394.1
229.4304,20.8
229.4468,918.5
229.5734,56.1
229.5839,161.2
229.6837,170.3
229.7525,114.2
229.8096,591.6
229.8412,283.5
229.86,104.8
229.8741,628.7
229.9383,70.7
229.9571,4004.4
229.9692,88.8
229.9904,134.7
229.9985,84.4
230.0162,365.8
230.0334,125.2
230.1564,133.1
230.2922,223.5
230.3906,572
230.4536,180
230.5307,371.1
230.589,98.5
230.6277,102.2
230.7041,188.2
230.8104,500.4
230.821,286.5
230.8902,375.1
230.9509,98.9
230.9603,166.3
231.0498,430.4
231.0558,215.3
231.0951,71.2
231.3005,92.1
231.4256,66.7
231.5808,140
231.6185,305.1
231.7224,220.2
231.8223,68.6
231.914,149.2
231.9262,21.9
231.9478,65.5
231.9528,69.9
231.9574,133.9
231.9665,96.6
231.9727,75.8
231.9954,72
231.9991,52.4
232.0378,296.2
232.0449,437.4
232.0813,801.9
232.084,291.7
232.1585,562.5
232.2021,337.6
232.2116,693.1
232.3708,882.9
232.4044,78.6
232.6197,339.6
232.735,275
232.7657,109.1
232.7704,97.6
232.7838,77.6
232.7873,130.4
232.8298,111.1
232.8967,28808.9
232.9169,20.7
232.9937,418.2
233.0511,12311.6
233.0584,687.2
233.1489,293.4
233.1758,137.6
233.18,67.7
233.3498,206.6
233.3656,193.3
233.399,104.7
233.4949,271.6
233.5203,387.4
233.5897,20.3
233.6045,910.4
233.613,240.9
233.6971,68.8
233.8141,89.2
233.9068,654.9
233.9529,48
233.9579,355.4
234.0017,236.4
234.0172,114.6
234.0559,23.9
234.1489,13871.8
234.1855,417.5
234.1932,87.6
234.3292,291.5
234.3698,118.2
234.3879,584.2
234.481,344.1
234.5404,355.4
234.645,86.8
234.7173,20.6
234.7703,21.6
234.7883,265.3
234.7929,82
234.8399,17.5
234.8425,17.1
234.8937,8709.7
234.9002,21.7
234.9814,2192.4
235.0525,325.7
235.0568,2977.3
235.0668,2120.4
235.0927,5591.1
235.1032,126.3
235.1524,1004.7
235.2094,121.3
235.3651,121.4
235.4396,758.2
235.5599,282.9
235.5885,297.3
235.6241,303.7
235.9221,231.6
236.0144,115.5
236.0227,1068.2
236.0408,1955.5
236.0717,57544.3
236.2453,508.7
236.2713,180.4
236.2876,233.3
236.5481,233.5
236.5609,174.8
236.6367,269.9
236.7703,345.3
236.8335,168.5
236.8783,109.1
236.8918,451.8
236.9094,109.3
236.9703,236.3
237.0161,110.9
237.0298,424.2
237.0715,41.5
237.0752,1381.3
237.1068,85.6
237.1163,509.5
237.1635,151.2
237.1969,309
237.2891,222.1
237.3077,161.9
237.3202,549.8
237.3731,96.9
237.4024,169.7
237.5225,257.6
237.5277,190.6
237.5344,17
237.7043,88.3
237.7679,71
237.7847,392.7
237.7991,448.4
237.856,202.2
237.8617,130.2
238.0016,83.3
238.0676,450.2
238.1833,323.2
238.2459,125.9
238.2574,374.4
238.2879,90.2
238.3843,900.1
238.503,260.9
238.5692,219.8
238.6052,442
238.6531,105
238.7771,53.3
238.8063,281
238.842,5744.5
238.8532,447.4
238.8629,482.2
238.901,101.1
238.9181,95.8
238.929,655.5
238.9433,104.1
238.9768,21.6
239.0091,4129.5
239.0488,556
239.0638,371.7
239.067,125.6
239.1363,447.6
239.2898,138.3
239.3002,105.8
239.3416,234.8
239.4134,732.8
239.6731,517.1
239.7666,120.5
239.8388,338.9
239.8784,312.9
239.893,379.7
239.9233,456.7
239.9333,134
239.9675,592.2
240.0355,18.3
240.0999,130.4
240.1128,108.8
240.1169,18.6
240.2124,776.6
240.3192,159
240.348,647.4
240.3706,55.8
240.4035,221.8
240.4163,211.5
240.5528,17.1
240.603,18.8
240.8287,163.8
240.8387,1423.9
240.8648,23.4
240.8694,80.1
240.8993,277.1
240.9499,186
240.9547,1074.4
240.9672,1826.9
240.9843,390.3
241.0632,53.6
241.0871,82.8
241.1296,614.2
241.4043,202.5
241.4109,836.7
241.4184,94.5
241.4332,359.6
241.5118,377.7
241.5519,71.7
241.5623,191.5
241.5985,131.7
241.6269,217.6
241.8162,72.6
241.9382,54.3
241.9469,17.4
241.9775,156
241.9982,2725.7
242.0191,5679.6
242.0507,141.2
242.0857,164.6
242.1248,223.4
242.2166,70.5
242.2882,20.1
242.3906,122.1
242.4305,291.7
242.4478,574.1
242.51,104.4
242.5612,442.6
242.7823,568.9
242.8124,105.8
242.8199,438.4
242.9256,9774.9
242.9662,116.8
242.9758,34.9
243.0065,1593.8
243.0343,335.2
243.0531,7143.1
243.0654,9888.7
243.194,20.1
243.3093,441.5
243.317,682.5
243.5287,434.8
243.5785,85
243.6435,118.7
243.7829,58.8
243.809,995.3
243.8619,18.5
243.9688,361.9
243.9728,2228.3
243.9958,834.7
244.0127,126.6
244.0268,190.2
244.0756,170.9
244.3091,243.3
244.3135,109.6
244.444,217
244.4842,134.2
244.5044,79.6
244.5138,353.9
244.6261,100.1
244.691,189.2
244.7871,398.6
244.8187,111.4
244.8708,3283.7
244.9057,159.8
244.9486,123.3
244.9761,167.3
244.9804,536.3
245.0209,1087.2
245.0429,331
245.0912,125.8
245.184,114.9
245.2008,357
245.4596,189.7
245.4623,112.1
245.4863,183.6
245.6385,189.6
245.7144,23.5
245.7271,148
245.732,17.5
245.8014,18.6
245.899,113.1
245.9062,18.1
245.9336,74.9
245.9731,82.5
245.9884,91
246.0014,39.3
246.0151,62.1
246.0364,89.7
246.0777,115.5
246.2413,290.6
246.2759,144.6
246.2788,360.7
246.3208,203.8
246.3466,105.2
246.3799,198.4
246.4496,57.5
246.4825,138.4
246.633,330.6
246.7047,131.9
246.775,367.6
246.7785,63.7
246.8625,193.7
246.915,341.5
246.9517,1716.2
246.9703,18.4
247.0493,124.9
247.0667,1769.8
247.0927,3896.5
247.1112,214
247.1853,361.4
247.2343,595.4
247.5058,283.9
247.5241,148.5
247.5298,19.9
247.6288,637.4
247.6694,121.2
247.7205,210.4
247.8764,129.8
247.9226,100.9
247.9677,266.6
247.9834,184.6
248.0564,18.3
248.0956,30.1
248.1003,498.5
248.1242,1025.9
248.1488,52.4
248.2626,81.5
248.3353,240.1
248.3533,447.2
248.4477,106.5
248.5012,108.5
248.5694,190.6
248.646,167.2
248.7254,18.5
248.8707,7330
248.9008,119
248.9137,114.7
248.9206,138.9
248.9261,18
248.9481,79.6
249.0163,701.9
249.0476,57.5
249.0508,78.8
249.0612,3910
249.0819,154.2
249.1073,113.7
249.1147,114
249.1212,281.9
249.2937,208.2
249.3314,76.5
249.3531,84.3
249.3763,749.7
249.3895,130.7
249.4134,335.9
249.4508,99.5
249.5876,384.5
249.6211,443.4
249.8857,20.3
249.9521,61
249.9704,155.3
249.9769,187.5
249.9794,211.4
250.0288,463.3
250.0381,1341.7
250.1958,22.6
250.2702,387.4
250.3013,74.1
250.5027,113.9
250.5276,215.5
250.5549,416.3
250.8782,433.7
250.8941,249.2
250.9204,892.9
250.9978,588.6
251.0348,245.1
251.0688,506.6
251.0958,75.8
251.0971,78.7
251.1187,295.1
251.1932,138.1
251.2067,171
251.2096,60.7
251.2626,887.2
251.2718,125.2
251.4971,253.3
251.5316,129.9
251.5496,91.6
251.5739,62.6
251.6732,17.2
251.8556,134.1
251.9109,893.3
251.9806,741
251.9917,163.7
252.037,170.5
252.0457,126562.5
252.1145,326.6
252.1256,403.1
252.1454,410.5
252.192,144.3
252.3152,263.8
252.5453,122.7
252.7403,372.7
252.7874,73.7
252.8096,89.9
252.83,373.1
252.9172,520.3
253.0326,194.9
253.0491,9372.8
253.0701,268.5
253.0854,336.2
253.1673,84.7
253.2405,368.1
253.3795,461.6
253.4543,20.3
253.5219,210.3
253.5423,387.1
253.6393,384.7
253.7273,86.6
253.7868,216.2
253.8924,121.1
253.9105,470.6
253.9591,77.8
254.0354,426.3
254.0438,4916.6
254.0784,132.5
254.1209,24.4
254.1927,291.2
254.284,185.8
254.3436,20.9
254.3704,150.2
254.3918,896.6
254.3963,19.2
254.5634,153.3
254.7142,761
254.7262,166.6
254.8023,112.5
254.8161,1070
254.8238,7675.9
254.8899,132.7
254.9035,64.1
254.9464,604.8
254.9836,682.7
255.0252,433.3
255.033,25336.5
255.038,2339.2
255.0468,399.5
255.0967,19.7
255.2518,515.3
255.3189,138.6
255.3299,83.1
255.3414,262.9
255.3452,212.8
255.4644,20.1
255.5378,417.1
255.5789,94.4
255.5949,378.5
255.6097,65.1
255.6823,191
255.8481,74.3
255.908,262.1
255.9985,90.2
256.0043,555.8
256.0415,221
256.0817,137.1
256.164,325.8
256.2638,25.1
256.4035,445.1
256.595,121.9
256.6368,105.6
256.6738,951.7
256.7254,390.9
256.821,11884.1
256.8855,214.5
256.9096,182.6
256.9818,27.2
256.9883,18.1
257.0221,84.5
257.0487,6128.8
257.0661,1034.8
257.0746,44699.3
257.0807,78.5
257.1655,81.3
257.1926,421.7
257.2267,385
257.2398,307.7
257.2666,255.3
257.4968,718.8
257.5078,144.4
257.5267,513
257.6421,368.9
257.8148,208.3
257.8504,1007.8
257.8703,138.5
257.92,124.9
257.9521,189.8
257.9886,101.4
257.9932,352.3
258.03,2508.3
258.0422,125.9
258.0712,221.2
258.0779,822.5
258.1104,877.7
258.144,88.6
258.2081,66.7
258.2439,689.9
258.3022,94.9
258.3183,415.3
258.3532,252
258.5738,92.7
258.6066,447.4
258.8178,4904.3
258.8465,133.8
258.8682,109
258.9006,22.4
258.9787,76.9
259.0224,198.6
259.0379,1251.4
259.0525,88.6
259.128,831
259.1698,20.4
259.2453,240.4
259.2865,213.6
259.4969,18.3
259.5105,629.9
259.5164,206.5
259.553,146
259.5631,89.6
259.6043,462.3
259.6094,769.4
259.6646,127.5
259.7995,102.9
259.8511,425.4
259.8569,341.7
259.9223,140.6
259.9705,280.5
259.9876,19.1
260.0759,367.8
260.1883,135.2
260.2617,80.5
260.2738,192.2
260.412,79.9
260.4776,1094.5
260.4834,282.9
260.5445,82.2
260.6525,244
260.6783,23.1
260.814,409.1
260.8449,1177
260.8766,334.7
260.9491,4342.2
260.9703,223.1
260.9884,193
261.0112,492.4
261.0245,164.6
261.0457,793.3
261.0579,166.3
261.079,104.4
261.083,111.5
261.1363,309.5
261.2815,162.1
261.2872,256.3
261.3201,341.6
261.5009,123
261.5726,785.8
261.623,80.9
261.9278,372.8
261.9833,170.6
262.0372,79.9
262.0774,526.4
262.1413,135.3
262.2475,133.7
262.2552,145.4
262.2835,771.8
262.3094,82.7
262.3134,99.4
262.3177,358.9
262.3422,91.3
262.4084,211
262.5017,70
262.5227,82.9
262.5307,97.8
262.6844,182.1
262.7327,257.5
262.7944,597.5
262.8764,17.8
262.9169,21.1
262.9462,1171.1
262.9936,266.3
263.0673,277.4
263.085,1680.6
263.4238,195.5
263.5235,127
263.5795,20.8
263.5924,21.6
263.7263,279.3
263.7388,85.9
263.7848,924.7
263.8284,69.6
263.8934,108.7
263.9534,90.6
264.0797,633.2
264.1827,295.4
264.2749,234.1
264.3318,797.3
264.382,21.1
264.4115,117.9
264.4194,397.6
264.4773,67.8
264.5549,85.7
264.8527,4016.3
264.8582,306.6
264.8732,54.1
264.9885,14749.5
265.0003,749.5
265.0162,43.2
265.0233,1026.1
265.0352,3365.3
265.0474,2342.1
265.0703,279.8
265.0817,77.6
265.1084,313.1
265.1518,126.4
265.1562,629.7
265.272,171
265.3836,170.5
265.4006,67
265.5662,82.3
265.7748,82.9
265.8216,127.5
265.9576,41.5
265.9784,181.2
265.9868,637.3
265.9921,131
266.0881,72.1
266.2189,220.9
266.3162,173.6
266.3668,78.9
266.4735,269.3
266.5044,89.1
266.5605,68.8
266.609,890.7
266.7594,189.5
266.8497,5975.9
266.8943,2831.1
266.9097,125
266.914,181.1
266.9592,24
267.0241,359.4
267.0426,1042.8
267.0591,255
267.2014,512
267.2709,70.8
267.3649,91.1
267.409,112.2
267.5752,91.9
267.647,508.4
267.6533,474.3
267.6684,222.8
267.8683,108.8
267.9039,402.2
267.9481,156.8
267.9523,58.7
267.9738,44.4
267.994,594.9
268.0294,390.9
268.0664,182.1
268.172,123.8
268.4647,26.8
268.4738,198.5
268.8464,1201.4
268.8626,27.7
268.8648,165.7
268.8913,329.7
268.9297,65.2
268.943,208.4
269.0122,19.1
269.03,650.5
269.0346,217.1
269.045,15618.5
269.0487,46812.4
269.0613,74.8
269.0753,232.3
269.103,112.8
269.1549,69.2
269.1767,606
269.2178,71.5
269.2757,363.6
269.332,206
269.3417,166.1
269.3456,19.5
269.3838,513.7
269.4268,304.6
269.5879,79.6
269.6233,303.7
269.675,152
269.761,70.3
269.9728,117.1
269.9895,160.3
270.0094,87.6
270.0249,12028.4
270.0474,18532.5
270.052,163.9
270.0541,141.8
270.0556,131.8
270.1049,271.2
270.1703,211
270.4104,77
270.4504,209.8
270.6182,655.8
270.6307,123.5
270.7979,4681.2
270.8055,172.8
270.9248,475
270.9599,54.8
270.9779,7089.4
270.9861,765.4
271.0072,270.6
271.0282,1033.1
271.0506,221.3
271.0779,206.8
271.0855,115.8
271.0903,2998.4
271.2263,22.1
271.3131,320.9
271.3607,300.7
271.4131,58.9
271.4186,20.2
271.4277,111
271.4328,123.9
271.4655,323.2
271.626,20.1
271.6491,558.6
271.6956,239.1
271.7512,117.7
271.8911,74.3
271.9663,403.3
272.005,65.4
272.0207,318.3
272.03,25.6
272.0367,103.1
272.0432,55.3
272.0804,172.3
272.2433,135.8
272.3137,354
272.4806,346.9
272.6205,22.3
272.633,375.4
272.68,113.3
272.7147,138.3
272.795,6732.3
272.821,110.6
272.8813,19.4
273.0241,99.9
273.0425,482.9
273.0488,1841.9
273.0764,168.3
273.265,490.4
273.3644,164.4
273.4265,350.3
273.5236,20
273.5332,379.1
273.5414,435.9
273.549,213.7
273.5536,112.9
273.7409,83.5
273.7666,378.1
273.782,241.1
273.842,75.6
273.8907,95.3
273.9203,80.6
273.9345,309
273.9626,11390.2
274.1001,76.9
274.2006,117.9
274.4149,139.9
274.5069,518.1
274.6091,84.2
274.6211,387.6
274.7921,1982.7
274.8819,927.7
274.895,428.5
274.9826,24.6
275.0314,936.5
275.1293,117.4
275.1835,84.7
275.1986,887.7
275.2104,642
275.2196,108.2
275.2322,135.3
275.2515,20.6
275.2597,292.9
275.2659,198.6
275.3065,108.5
275.3129,112.5
275.4205,196.3
275.4235,213.1
275.4564,95.5
275.5093,292
275.8022,874.6
275.9175,337.2
275.9241,144.7
275.9992,21.6
276.0034,126.8
276.0679,134.1
276.0849,25.2
276.191,99.8
276.3552,17.6
276.3928,245.5
276.4445,87.2
276.5077,165.1
276.806,267.4
276.8301,340.4
276.882,220.8
276.923,5865.2
276.9507,23.7
276.9852,802.8
277.0445,182.2
277.1564,118.1
277.2207,838.6
277.282,271.6
277.3809,449
277.6325,76.4
277.6358,79.9
277.6698,71.7
277.7954,115.8
277.8083,90.7
278.0004,28.2
278.0191,309.1
278.2138,373.5
278.2804,49.7
278.3047,300.6
278.5848,391.5
278.6031,91.6
278.7312,856.9
278.8887,90.3
278.9199,915.3
278.9522,475.6
278.9598,171.2
278.9871,1920.8
279.0041,2325.3
279.0228,42.5
279.0566,47872.3
279.1509,17.9
279.4221,19.4
279.433,316.4
279.4572,20.9
279.4955,73.6
279.5724,112.1
279.6576,95
279.6986,18.5
279.8448,469.6
279.8635,243.2
279.8819,18.3
279.8894,90.6
279.9107,92.4
279.9249,87.9
279.9658,608.5
279.985,170.8
279.9998,20.6
280.012,1511.9
280.0163,713.3
280.0603,998.9
280.1006,76
280.1655,824.2
280.1901,347.8
280.3499,120.5
280.4162,24.7
280.448,66.7
280.4721,106.3
280.5511,143.2
280.6869,114.4
280.7157,65.8
280.7513,894.6
280.7703,204.8
280.7885,936.1
280.8267,1552.1
280.8957,135.6
280.9624,476.7
280.9683,131.9
281.0048,82
281.0097,992.1
281.0203,75.6
281.0257,532.4
281.0504,137.4
281.4397,20.4
281.4807,232.2
281.5147,114.1
281.562,52.2
281.6388,122.9
281.7536,276.1
281.7714,259.5
281.7877,86.8
281.9917,128.8
282.0146,121.7
282.0647,336.7
282.111,471.1
282.273,144.1
282.4283,663.7
282.4548,92.2
282.4817,83.1
282.8236,2986.8
282.8446,297.5
282.8598,116.7
282.869,326.6
282.9066,412.2
283.0036,159.3
283.0189,112.9
283.0275,1206.9
283.0428,83.8
283.0468,21.8
283.0562,325.7
283.3562,121.1
283.5772,76
283.8081,77
283.8416,59.6
283.9048,574.4
283.957,397.6
283.989,29
284.0045,32.7
284.0096,439.4
284.0245,112
284.0536,51.8
284.063,143.2
284.0692,409.2
284.2637,75.2
284.3614,300.3
284.3807,136.2
284.3987,205.3
284.4707,359.6
284.4882,335.8
284.5539,279.9
284.6196,541.7
284.645,80.2
284.6482,596.4
284.667,144.8
284.7084,432.1
284.7195,24
284.7737,679.3
284.8242,451.2
284.9771,89.7
284.9935,472.5
285.0174,162.5
285.0226,555.8
285.0473,178.6
285.1236,8199.6
285.1407,101.9
285.3142,714.7
285.4328,418
285.5572,203.3
285.6807,407.9
285.7005,226.1
285.738,284.6
286.0201,3966.4
286.0451,60.6
286.0584,71.6
286.0966,20.7
286.1271,1448
286.1313,1059.2
286.2634,1179.4
286.2692,163.5
286.3322,226.2
286.4187,556.1
286.5361,398.2
286.6769,137.6
286.6824,196.9
286.7645,832.7
286.7717,2517.4
286.8412,426.2
286.917,747.4
286.9385,79.6
286.952,2203.4
287.023,243.4
287.0554,36314.3
287.1391,1714.8
287.1594,1508.7
287.3105,192.3
287.5223,347.6
287.9536,698.7
287.9675,382.5
287.979,92.5
288.0106,161.5
288.016,58.2
288.0355,133.6
288.0588,2219.2
288.0845,39.6
288.345,157.1
288.642,18.8
288.7689,2281.4
288.813,178.9
288.8332,264.1
288.8421,18.1
288.8515,476.5
288.8792,1534.7
288.8903,2187.3
288.8967,5344.6
288.9083,4943.7
288.9133,7294.5
288.9154,7341.5
288.9219,7925.7
288.9291,13412.7
288.9413,19991.4
288.9487,15928.5
288.9526,17683.5
288.9612,20972.3
288.9678,16823.4
288.9771,10686.1
288.9821,9113.9
288.9884,8252.4
289.0011,2718.6
289.0082,1461.1
289.0155,860.4
289.0193,561.5
289.0252,302.9
289.0277,361.6
289.0617,506.7
289.1452,299.2
289.2259,376
289.2373,121.6
289.2594,184.7
289.4176,202.6
289.8311,1076.6
289.8858,457.4
289.9365,2172.7
290.0571,532.3
290.1003,36
290.1617,115.3
290.2869,130.5
290.32,70.3
290.3737,22.8
290.4564,203.1
290.5366,477.1
290.5401,112
290.7585,159.6
290.7658,1704.2
290.7973,27.2
290.8873,252.7
290.8972,349.1
290.9352,105.6
290.939,330
291.0153,91.7
291.0269,2188.1
291.0522,553.7
291.5154,146.7
291.5274,123.5
291.6092,70.5
291.6714,293.6
291.6885,628.6
291.7156,17
291.7239,531.6
291.7615,113.9
291.8218,295.4
291.8475,137.4
291.8906,109.8
291.8931,114.1
291.9733,192.6
292.0798,50.4
292.1295,93.1
292.162,817
292.2301,458.7
292.34,639.8
292.4424,342.4
292.462,267.1
292.4888,129.7
292.6065,438.6
292.6331,350.5
292.6714,167.4
292.6947,113.6
292.8014,958.5
292.8857,188.1
292.8968,1374.7
293.006,70.8
293.0722,2979.8
293.0983,197725.7
293.1061,85.2
293.1352,916.8
293.179,7187
293.4918,790.7
293.5088,797
293.5109,862.9
293.5761,118.3
293.5861,709
293.5968,119.5
293.6908,655.6
293.8677,748.2
293.8848,70
293.9296,211.3
293.9343,164.1
294.0953,353
294.1016,16877.9
294.1124,800.8
294.1815,487.1
294.2198,490.2
294.2693,444.1
294.2953,124.1
294.3047,913.4
294.3343,53
294.3525,228.7
294.4116,190.8
294.4722,19.1
294.512,220.2
294.5729,367.2
294.5834,96.3
294.6791,801
294.7375,365
294.8019,867.4
294.8673,1333.1
294.9753,339.2
294.9905,142.8
295.0306,1579.1
295.1024,1567.2
295.1136,127.8
295.1947,23743.8
295.2845,69.8
295.3079,81.3
295.3263,433.6
295.5903,353.7
295.82,94.8
295.9521,465.6
296.1043,300.3
296.1983,1238.7
296.5669,422.5
296.5888,71.4
296.8009,618.2
296.8124,378.7
296.8206,651.5
296.8474,247.4
296.9865,129
296.9995,199.4
297.0426,141.1
297.0869,94.6
297.156,93.2
297.1735,109.7
297.2906,240.3
297.4452,18
297.5859,105.2
297.6655,458.1
297.866,20
297.887,472.7
297.9784,1050.5
298.0047,26.8
298.0256,1274.1
298.0424,18416.6
298.1106,32.8
298.1928,518.9
298.2761,18.1
298.3706,235.5
298.5498,157.7
298.6719,19.8
298.7975,574
298.8198,325.4
298.8774,23.1
298.9093,125.1
298.9716,446.5
298.9864,57.3
299.046,600.8
299.1392,17404.1
299.1958,5086.9
299.4774,262
299.5968,21.5
299.6231,611.6
299.8131,226.4
299.8582,66.1
299.9002,484.4
300.0354,981.1
300.0755,365
300.0822,899.7
300.1426,103.2
300.1958,65.5
300.1998,612.3
300.407,232.6
300.5614,198.9
300.5778,24.6
300.6153,260.4
300.7828,168.2
300.8288,630.4
300.9061,767.2
301.0036,86.4
301.0122,28.9
301.0386,24134.7
301.0792,64.4
301.1414,452.4
301.1548,1884.8
301.1735,91.7
301.2117,4656.8
301.2449,195.2
301.3856,596.1
301.3935,87.5
301.4107,162
301.5448,58.7
301.5629,70
301.6158,86.6
301.7177,215
301.7464,83.1
301.862,173.2
301.883,91.6
301.9593,220.7
301.9872,188.7
301.994,6249.3
302.0198,3251.3
302.0295,128.2
302.0344,27.5
302.0421,635.2
302.0512,225.8
302.0641,2826.9
302.073,27.9
302.0794,73.4
302.2147,619.6
302.4888,434.8
302.5715,274.4
302.6984,140.3
302.7145,763.4
302.7457,1052.8
302.7662,595.5
302.8225,359.3
302.8295,2207.4
302.9351,200.8
302.9427,443.1
302.9506,909.9
302.9862,21.3
302.9976,72.2
303.0278,3501.3
303.0674,294.3
303.0745,416.5
303.1199,54.5
303.1826,307
303.217,2965.1
303.2298,699.3
303.2796,82.2
303.494,365
303.5238,298.2
303.5875,280.9
303.6429,82
303.6871,190.1
303.9169,98.1
303.9862,240.5
304.0337,200.1
304.0599,84.1
304.069,167.6
304.092,2571.3
304.1487,138.1
304.192,180.3
304.3565,224.9
304.4567,273.5
304.7204,85.5
304.7429,723.6
304.8262,785.9
305.0281,458.1
305.0824,306.5
305.0904,89.4
305.2329,1248.8
305.2459,1099.2
305.4264,273.7
305.5823,71.7
305.6792,150.6
305.8299,464.2
305.9823,28.5
306.0325,133.4
306.0954,817.9
306.129,19.7
306.203,257.9
306.2198,22.9
306.2299,17.3
306.242,333.2
306.2552,705.8
306.2986,818.3
306.4697,199.7
306.6242,20.4
306.632,240.4
306.8421,36.1
306.9582,649.2
306.9769,1813.4
307.0261,122.4
307.2393,434.4
307.2607,169.4
307.3121,178.6
307.4708,813.3
307.4797,75.5
307.4881,223.4
307.5723,240
307.5992,139.1
307.7407,339.1
307.7798,507.3
307.8443,23.2
307.8572,373.3
307.9573,350.7
307.9882,138.4
308.0605,18.9
308.1549,436
308.1827,90.7
308.2982,132.3
308.3772,176.3
308.3916,83.3
308.622,84.5
308.6309,65.4
308.8078,38.8
308.8469,156
308.8665,286.9
308.8789,2826.8
308.9227,135.8
309.0048,134.8
309.0377,3754.3
309.0715,65.5
309.0814,339.6
309.1211,542.4
309.1487,183.3
309.1679,20.3
309.3614,461.6
309.422,318.6
309.5826,141.3
309.6207,170.2
309.6741,765
309.9962,166.7
310.0087,124.2
310.5204,380.7
310.7288,486.2
310.8762,1395.2
310.8961,325.6
310.9418,371.5
311.1138,126.2
311.1168,113.4
311.1673,415.8
311.2084,126
311.2429,111.9
311.3228,242.1
311.4043,341.3
311.584,141.1
311.5988,19.7
311.6068,373.7
311.7432,86.7
311.7889,19.2
311.9273,268.6
311.9994,51.8
312.0194,167.6
312.0415,986.1
312.0569,72.7
312.2324,760.6
312.281,105.9
312.4564,71.8
312.4834,270.2
312.5418,104.2
312.783,414.3
312.8259,430.8
312.8727,839.9
312.923,121.7
312.941,17.7
313.0013,19.4
313.0179,158.4
313.1208,863.8
313.1524,2198.6
313.2514,667
313.2659,191.5
313.2741,11574
313.3309,213.7
313.5569,433.4
313.6444,94.4
313.9318,836.4
314.0148,4502.4
314.0295,354.3
314.0911,136.7
314.0966,615.5
314.1756,515.8
314.2104,430.1
314.2202,285.9
314.2291,307.7
314.2767,465.3
314.3398,415.9
314.4315,177.9
314.4635,295.2
314.5009,183.2
314.5435,151.7
314.6019,227.4
314.6092,132.8
314.7028,182
314.7167,100.9
314.7584,194.4
314.7801,330.8
314.7971,18.8
314.8369,3785.5
314.8749,421.4
314.8998,201.3
314.9991,4566.8
315.0186,499.4
315.0279,88.6
315.0451,195.5
315.0552,13507
315.0642,5372.5
315.0663,14742.9
315.0696,18284.9
315.0736,23772.8
315.0802,7365143
315.0901,13895.7
315.0919,6775.8
315.0945,5322.4
315.0967,4458.3
315.0985,5008.8
315.1006,2247.3
315.1028,2203
315.1055,1910.5
315.107,2547.8
315.1132,405.2
315.1176,243.3
315.1197,257.4
315.134,81.3
315.1361,80.4
315.1614,5438.1
315.1696,720.7
315.2606,69
315.3237,5515.8
315.4862,277.1
315.5689,60.5
315.6012,93.5
316.0107,124.9
316.0678,548.6
316.0775,40626.8
316.0835,754726
316.557,189
316.6271,18.5
316.7102,82.5
316.747,135.4
316.7849,261.1
316.7976,44.8
316.8169,96.2
317.0563,3620.2
317.0652,1358.8
317.0716,293.1
317.084,86558.1
317.1518,256.3
317.1806,85.9
317.1854,500.6
317.2145,66.5
317.2351,19.1
317.2461,416.3
317.3452,531.9
317.3943,98.4
317.4026,373
317.4289,806
317.4739,66.6
317.5068,460.8
317.5759,104.4
317.5966,223.6
317.6116,292.1
317.6261,214.8
317.6501,68.7
317.8698,844.7
317.8783,123.8
317.9988,314.8
318.0588,79.1
318.0799,99.3
318.0876,7881.3
318.1233,456.3
318.1383,206.2
318.2867,216.7
318.31,414.8
318.3773,696.4
318.403,67.8
318.4767,69.4
318.7678,308.7
318.7925,267.2
318.8033,1686.5
318.8649,28.7
319.1144,115.6
319.1948,41170.5
319.2895,297.6
319.3006,727.7
319.4379,368.4
319.5449,83.8
319.56,87.3
319.6885,218.6
319.7968,118.5
319.8021,658.1
319.8831,178.8
320.0072,185.1
320.0346,264.5
320.075,69.7
320.098,274.6
320.1524,288.5
320.1983,2781.4
320.2587,2565.6
320.4573,144.2
320.6186,164.9
320.8009,629.2
320.8307,22.4
320.9128,302.2
320.9505,430
320.9597,144.6
320.9774,299.7
320.9833,94.4
321.0116,87.1
321.1006,22.1
321.1068,91.7
321.2104,73852.2
321.2284,73.9
321.2603,203.9
321.3333,1222.7
321.3727,132.2
321.3848,249.5
321.8339,22
321.9201,592.5
321.9752,92.4
322.0077,305
322.0399,308.8
322.0582,149.9
322.124,122.1
322.1574,104.3
322.2138,10358.8
322.8117,728.4
322.8267,242.3
322.8386,19
322.9095,98.1
322.994,317
322.9982,667.7
323.005,88.1
323.0204,11799.2
323.1377,952.5
323.2261,769.1
323.3672,69.9
323.4955,97.2
323.5826,453.9
323.6117,571.1
323.6381,108.1
323.8315,233.2
323.918,428.6
323.9771,318.6
324.0018,14374.3
324.0631,359
324.1348,98.5
324.1888,808.8
324.1988,108.4
324.3226,93.1
324.5547,173
324.6073,614.1
324.6132,2348.3
324.6282,3359.7
324.634,1683.7
324.6428,403.4
324.809,1476.4
324.8531,2267.7
324.8997,147
324.9454,85.9
325.0007,85
325.0057,517.7
325.0524,234.6
325.0571,434.3
325.1277,224
325.1517,475.7
325.1973,599.3
325.2033,586.1
325.2116,12777.1
325.2306,139.2
325.6131,276.6
325.6188,277
325.6411,96.4
325.7218,319.2
325.8598,392
325.9796,66.1
326.0085,332.6
326.2151,1564.5
326.2631,58.6
326.2826,280.8
326.3012,407.3
326.3756,67.8
326.6371,313.2
326.8505,1550.6
326.9781,415.4
327.0156,2333.3
327.0238,947.7
327.0513,859.3
327.0596,22.2
327.0829,78.5
327.1924,137.4
327.2111,300.9
327.2273,40239.9
327.2546,238
327.2822,59.2
327.2899,111.5
327.3178,113
327.3619,138.1
327.4066,121.4
327.4759,165.9
327.7023,111
327.7592,482.9
328.0796,613.4
328.2307,6290.3
328.2504,447.6
328.4331,204.8
328.4418,782.8
328.4534,564.1
328.4736,141.1
328.5387,249.8
328.7419,371.1
328.7968,179.6
329.0955,643.6
329.4576,610.6
329.5472,287.4
329.594,69.6
329.7508,382.8
330.0196,153.4
330.059,136.4
330.1334,79.2
330.1958,519.6
330.4481,176.3
330.5511,302.5
330.7123,88.5
330.8143,90.3
330.8645,72.2
330.9592,136.2
330.979,246.7
331.0193,1093
331.0289,220.8
331.0453,109214.6
331.0541,949069.3
331.1123,311.4
331.2162,267.9
331.3225,423.1
331.3654,414.4
331.4623,197.4
331.5842,176.4
331.7138,163.1
331.7768,308.9
331.9871,80.4
331.9976,597.8
332.0143,840.9
332.0262,24.1
332.0481,5054.5
332.0575,85929.9
332.1974,127.3
332.2796,417.9
332.4089,60.3
332.4501,128.8
332.6592,458.6
332.7993,126.1
332.827,364.2
332.8785,173.9
332.9118,214.9
332.96,443.7
333.0209,191.9
333.0523,55135.4
333.0579,8712.1
333.0879,56.8
333.1512,175.3
333.1874,301.8
333.3157,939.7
333.3711,823
333.5649,199.4
333.6066,439.6
333.6297,93.2
333.677,115.9
334.0214,233.6
334.0317,81.7
334.0556,3941.8
334.0906,49
334.1052,106.2
334.2519,67
334.2649,85.3
334.5672,59
334.6885,825
334.7419,54.4
334.8297,296.8
334.8372,844
335.0195,346.9
335.0373,87.8
335.1445,1038.3
335.1662,1667.2
335.1895,16.8
335.2196,890.8
335.3404,67.9
335.4174,99.3
335.47,816.3
335.4983,383
335.8316,20
335.8838,124.2
335.8927,323.3
335.916,90.5
335.9562,220.2
336.0095,843.3
336.0767,85
336.1707,364.1
336.3527,390.7
336.3725,18.9
336.4306,184.9
336.4866,226.6
336.6498,235.4
336.7056,16.9
336.837,60.8
337.0362,14290.2
337.0497,19130
337.0621,712285.2
337.0832,90.6
337.1357,82.6
337.1829,1982.8
337.2281,95.1
337.2594,385.1
337.2734,653
337.2932,322.3
337.38,689.6
337.4444,164.7
337.4974,52.7
337.6154,66.7
337.7885,74
337.8368,1134.3
337.9707,181.5
338.0486,135.1
338.0655,62671.2
338.1869,331.3
338.249,701.2
338.3421,38.1
338.3684,56.2
338.7849,1037
338.7958,306.1
338.9205,515.4
339.0383,5970.6
339.0474,536.6
339.066,5719.4
339.1982,33.6
339.2521,494.5
339.2892,1025.6
339.3812,299.8
339.7075,159.3
339.8984,86
339.9487,21.7
339.967,396
339.9758,2149.9
340.0401,125.2
340.0868,605
340.1312,19.4
340.1764,753
340.2023,19.9
340.7176,78.3
340.8475,217.7
340.9819,565.6
341.0611,167.4
341.1328,497
341.2556,63.8
341.3271,98
341.5472,121.6
341.6917,264.4
341.712,585.2
341.7251,171.6
341.8445,507
341.9075,493.5
341.9752,60.1
341.9888,79
342.0153,10535.7
342.0682,125.1
342.0879,312
342.2581,77.7
342.3077,258.4
342.6371,99
342.7161,20.1
342.7335,189.9
342.8686,321.6
342.945,259.3
343.0149,644.8
343.1655,9249.3
343.1947,4845.2
343.2015,4343.7
343.2074,127.9
343.2458,144.1
343.3446,79.1
343.7431,199.9
343.9885,695.8
344.0454,18
344.1641,244.4
344.1852,85.9
344.4117,18.3
344.6313,101.8
344.6572,85.2
344.6647,124.7
344.7228,137.6
344.7275,59.7
344.7613,117.8
344.8056,88.6
345.0234,89.5
345.0875,284.1
345.2103,1090.8
345.4243,70
345.4445,387.2
345.6178,364.5
345.9838,38517.1
346.0099,1324.1
346.021,1764.9
346.0315,244.7
346.038,575.8
346.2622,70.2
346.3651,272.6
346.3977,71.8
346.5458,59.9
346.557,85.6
346.9879,1481.3
347.0016,360
347.0176,14205.6
347.0542,434.3
347.0712,201.4
347.3376,124.7
347.4358,72.6
347.5465,19.9
347.5541,589.2
347.8052,86.2
347.811,73.4
347.8677,73.9
347.8832,813
347.9093,335.5
348.0207,1102.3
348.2148,1001.4
348.2547,126.5
348.4233,103.2
348.5899,67.6
348.597,615.8
348.7652,745.2
348.8544,285.2
349.0181,3518.5
349.0249,196.2
349.1216,327
349.326,78.9
349.6139,90.5
349.6182,305
349.842,324.8
350.0185,787
350.1064,24.8
350.2612,928.3
350.337,266.2
350.4733,333.2
350.5577,126.9
350.7096,91.9
351.0151,1396.3
351.0368,1013.5
351.0957,69.6
351.1569,466
351.2028,733.5
351.2873,167.2
351.6235,22.9
351.668,407
351.7303,376.8
351.8285,448.2
351.993,20.5
352.2156,468.7
352.3,345.3
352.3124,104.5
352.3975,21.6
352.4311,451.7
352.5552,89.9
352.6915,24.1
352.7102,416
352.724,190.3
352.8044,440.9
353.0272,144332.3
353.0361,263729.2
353.21,19.2
353.5343,68.1
353.6223,240
353.6841,153.6
353.724,240.9
353.7468,425.5
353.7532,224.6
353.8832,25.7
353.9741,780.4
354.0304,11418.6
354.0394,24755.3
354.2092,21.1
354.3478,101.9
354.6734,354.1
354.7114,115.2
354.9197,400.2
355.0117,1683
355.0344,14986.8
355.0702,1020.2
355.1629,20.2
355.1712,659.4
355.2158,860.8
355.3815,18.4
355.7604,200.4
355.8032,20.2
355.8378,394.2
355.8604,175.7
355.8927,510.6
355.9365,238.4
356.006,189.2
356.0152,67.3
356.0379,370.8
356.0705,52.7
356.1422,150.9
356.1694,113.2
356.1862,84.4
356.2688,70.6
356.3294,346.2
356.8,19.5
356.8285,312.4
357.0088,374
357.0202,378
357.0668,119.5
357.1565,22.8
357.4682,126.5
357.5228,300.2
357.6087,150.4
357.6238,115.2
357.6303,237.9
357.6471,374.9
357.6581,73.1
357.6751,257.1
357.878,391.8
357.9216,318.5
357.9546,24.7
357.9773,910.4
358.0179,241.5
358.3847,94.6
358.4223,20.9
358.5565,260.6
358.5621,193.3
358.6156,379.4
358.6531,209.9
358.6785,120.7
359.0075,198.6
359.0316,15067.9
359.0441,536383.6
359.1539,144.4
359.167,290
359.2319,197.5
359.426,489
359.4622,468.9
359.472,306.6
359.4801,263
359.4915,978.2
359.5003,61.6
359.5096,480.7
359.5147,1090
359.5205,419.3
359.527,205.4
359.537,466.2
359.5437,224.6
359.5539,188
359.5688,709.1
359.5806,401.7
359.8306,90.8
359.9622,243.9
360.0354,205
360.0474,49674.6
360.304,19
360.3243,224.3
360.594,143.8
360.6918,110.1
360.6985,77.9
360.7339,331.1
360.8102,199
360.9426,614
361.0203,9454.6
361.0277,547.6
361.0479,1854.6
361.1854,111.2
361.3715,68.8
361.9084,264.6
361.9577,11147.2
362.0232,176.6
362.0579,570.8
362.1086,20.1
362.1799,57.3
362.1894,123
362.2225,219.3
362.3763,19.8
362.4213,415.2
362.5318,244.7
362.5685,291.4
362.8757,82.6
363.1125,19.1
363.1408,138.7
363.1479,20.9
363.2056,246.4
363.2484,65.9
363.3292,418.8
363.4632,269.6
363.6173,70.4
363.6567,88.1
363.6839,62.6
363.7177,188.1
363.8633,202
363.8859,220.7
363.9134,246.9
363.9974,3187.6
364.2207,77.4
364.2804,412.6
364.3972,300.7
364.5594,253.8
364.6093,320.8
364.6244,113.5
364.7704,559.6
364.7826,326.3
364.818,20.3
364.9441,293.7
365.0009,68.2
365.0671,154
365.1057,7458.6
365.4581,123.4
365.5009,54.8
365.6934,287.8
365.9158,403.7
365.986,87.8
366.0384,223.8
366.1302,197
366.1963,63.4
366.3035,320.4
366.3105,83
366.4591,78.4
366.5768,80.6
366.5906,145.6
366.7032,895.7
366.9236,189.6
367.0037,240.4
367.1951,850.3
367.2059,580.4
367.413,228.9
367.429,22.6
367.5853,180.5
367.7082,138.1
367.7346,115
367.8959,130.8
367.968,20.6
367.9917,4570.3
368.0029,994.1
368.0245,163.5
368.2845,186.6
368.3124,20.1
368.4097,19.5
368.4623,127.3
368.4835,122.5
368.5233,18.7
368.6636,128.6
368.8555,118.8
368.887,87.7
368.9925,1617.9
369.0003,26740.8
369.0101,9592.4
369.2019,607.7
369.2621,411.3
369.3514,184.1
369.3786,380.4
369.4905,20.1
369.5649,553.5
369.6137,65
369.6207,19.8
369.6926,123.6
369.8328,67.9
369.9641,829.8
370.003,1698.7
370.019,105.7
370.0508,276.9
370.1038,89.6
370.1709,837.5
370.2568,431.6
370.3353,276.3
370.3419,726.9
370.4374,355.7
370.5772,162.4
370.5896,107.2
370.8969,228.4
371,4167.3
371.0678,397
371.0874,19.9
371.5211,206.8
371.5433,479.2
371.5964,89.1
371.6569,299.9
371.6639,146.4
371.7525,140
371.7728,181
371.801,178
371.8159,159.4
371.8533,493.2
371.9739,289.9
371.9928,67.7
372.0014,166.2
372.016,113.8
372.0316,177
372.4606,184.2
372.4808,88.9
372.5502,263.1
372.6826,124.8
372.7385,747.2
372.7492,1167.6
372.84,203
372.9956,544.9
373.0458,22.1
373.0923,371.4
373.3499,436.4
373.3828,233.7
373.4173,125.7
373.7361,58.3
374.0021,277.3
374.0566,157
374.1811,331.6
374.3911,18.1
374.5146,400.3
374.5259,354.4
374.7351,587.1
374.7448,216.6
374.9228,18.6
374.9557,488.8
375.0092,137761.6
375.0181,156717.1
375.0413,193.2
375.189,19
375.1999,65.6
375.2122,65.1
375.2866,654.9
375.4209,242.8
375.6542,19.3
375.6868,204
375.7132,1005.9
375.7544,272.1
375.7947,91.7
375.8721,289.3
375.9647,31.3
375.9756,17.9
376.0123,10462.8
376.0214,13691.6
376.0467,190.5
376.2354,221.7
376.2919,234
376.3541,125
376.375,759.9
376.5833,205.5
376.8554,127.7
376.9353,96.9
376.994,2618.5
377.0164,8801.6
377.1292,501.5
377.167,397.6
377.4272,442.7
377.4911,64.8
377.534,69.7
377.6308,190.9
377.7676,120.8
377.8208,67.8
377.8532,66.8
377.9315,602
377.975,820.7
377.9911,66.3
378.3347,101.5
378.4181,330.2
378.4735,298.2
378.5217,259.7
378.5686,232
378.8811,64.3
378.9136,194.3
378.9882,65.4
379.0032,370.5
379.3116,229.2
379.3234,302.1
379.3379,19.4
379.4804,286
379.5383,115
379.5857,63.8
379.7207,138.7
379.796,246.7
380.0435,461.7
380.0997,445
380.1081,124.8
380.1459,82.1
380.2047,111.6
380.4528,126.7
380.4849,65.7
380.6165,65.4
380.6982,736.7
380.7216,20.2
380.7699,1157.2
380.7885,851.3
381.0135,17897.1
381.0261,323493.5
381.08,1761.3
381.1232,245.3
381.2313,1186.2
381.4332,413.3
381.4836,57.1
381.6231,145.2
381.7956,144.7
381.8575,109.9
382.0293,31650.7
382.129,213.4
382.1559,124.5
382.2244,19
382.4149,18.2
382.6294,292.5
382.7671,2215.1
382.7868,771.9
382.9889,72.4
383.03,462.2
383.0797,403
383.1048,362.7
383.1163,398380.7
383.1788,70.9
383.1999,65.5
383.2786,102
383.5376,444.3
383.5698,65
383.8579,200.2
383.9658,2801.2
383.9743,55.2
383.9851,122.6
384.0368,536.3
384.0912,603.8
384.105,252.6
384.1196,45625.2
384.2385,496.4
384.7639,1183.5
384.8181,18.8
384.9735,2679
385.0466,100.4
385.1204,3494.2
385.2758,157
385.4559,60.4
385.7164,346.5
385.7806,131.2
385.9462,19.9
385.9792,11145.5
386.1116,510.2
386.2419,74.4
386.2897,67.2
386.5588,281.2
386.715,395.3
386.7368,133.9
386.8934,776.4
386.914,77.3
386.9324,145.2
386.939,102.3
386.9746,522.7
387.0021,684.7
387.2702,526.1
387.5806,123.8
387.5995,233.1
387.9528,141.8
387.9784,1132.1
388.1862,7102.1
388.2225,114.3
388.2751,69.8
388.5397,357.6
388.5744,429.9
388.6072,827
388.6774,20.1
388.7125,600.4
388.7809,397.9
388.9594,209.9
388.969,84.3
388.9975,73.4
389.2162,142.8
389.8427,1001.9
389.8942,868.5
389.9736,49612.9
389.9849,519.7
390.0652,122.5
390.0724,223
390.1044,79.8
390.191,725.9
390.2418,188.7
390.3287,19.8
390.4341,63.8
390.6239,245.8
390.6601,146
390.7095,859.1
390.7923,126.9
390.7986,1037.1
390.8628,228
390.8769,71.5
390.8839,475.3
390.8922,1669
390.9152,756.3
390.9469,274.4
390.9825,31097.3
390.992,19224.5
391.0075,250.4
391.0253,155.9
391.3328,63.9
391.6761,110.4
391.7233,430
391.9151,24.5
391.9339,309
391.9467,18.7
391.9675,61.4
391.985,242.9
391.9958,489.2
392.2698,432.3
392.2849,162.3
392.3606,129.2
392.588,414
392.598,84.8
392.6382,922.4
392.6541,504.1
392.7959,1752.2
392.8562,201.6
392.9283,115.9
392.9405,18.8
392.9603,22.1
392.9674,376.3
392.9817,5239.9
392.9904,382.5
393.0405,100.6
393.1872,209.8
393.4383,358.7
393.502,278.2
393.9399,139.1
394.1001,98.3
394.2254,586.4
394.2872,279
394.3829,186.7
394.54,449.6
394.7938,875.7
394.869,208.8
394.9331,366.5
394.9769,1056
395.1805,106.7
395.204,17.9
395.3646,19.7
395.6848,440.1
395.9046,50.5
395.9638,470.5
396.003,456.3
396.3399,67.6
396.7438,1385.3
396.7998,831.2
396.9182,298.7
396.9911,147835.4
397,111348
397.102,221.1
397.271,87.5
397.4972,370.2
397.5326,161.8
397.5809,587.6
397.6588,461.4
397.8312,362.2
397.8479,731.6
397.8981,18.6
397.9672,39.6
397.9941,11658.7
398.0033,9017.5
398.2128,142.6
398.2415,4841.9
398.3108,224
398.441,299
398.4592,158.9
398.667,181.4
398.7054,150.2
398.7412,3466.4
398.7615,4255
398.9736,22.7
398.9985,3304.7
399.0084,178.4
399.1441,99.6
399.2448,1082.7
399.2638,398.2
399.2984,424.7
399.4394,365.2
399.5237,619.2
399.5407,284.5
399.7351,374.4
399.875,63.7
399.9313,170.3
400.0129,56.5
400.36,153.4
400.4082,72.7
400.5445,455.5
400.6053,271.7
400.6252,73.5
400.7379,1633.4
400.8274,592.4
400.9642,21.5
400.9875,346
401.0431,195
401.1312,111.3
401.1922,62.6
401.3204,104.8
401.4138,145.9
401.4664,162.6
401.9089,21.9
401.924,135.6
401.9531,2563.5
402.0288,92.9
402.1627,326.8
402.3747,88.6
402.4115,63.7
402.5735,86.2
402.7356,402.8
402.8249,750.9
402.9332,383.2
402.9624,501.3
403.0079,273754.6
403.024,167.7
403.0657,212.5
403.2021,149.3
403.3182,222.2
403.3978,549.7
403.5856,501.5
403.7913,97.7
403.9424,2046.9
403.9522,371.4
403.9779,127.9
404.0113,24555.1
404.0229,128.6
404.1823,81.1
404.2087,108.8
404.6663,20.7
404.6859,440.5
404.7659,128.7
404.8458,556.7
404.8565,79.4
405.0121,1109.4
405.0412,333.8
405.1549,276.3
405.2693,19.8
405.2781,523.8
405.294,63.6
405.2997,132.3
405.5474,124.5
405.6716,67.5
405.7496,486.6
405.7878,264.4
405.8126,119
405.9009,131.7
405.9476,27395.7
406.2218,380.9
406.2941,67.7
406.3294,1360.8
406.5804,142.3
406.6859,83.7
406.6983,17.1
406.7726,2111.6
406.8829,392.7
406.9555,3434.9
407.0437,450.4
407.2089,110.3
407.2213,420.1
407.298,124
407.335,120.8
407.748,703.6
407.9461,164.7
407.9538,355.3
408.1498,196.7
408.3044,401.3
408.7316,19.9
408.7698,2900.4
408.8078,188.6
408.83,126.8
408.8378,89.3
408.9558,453.3
408.9744,106.4
409.0639,158.7
409.094,853
409.1061,364.3
409.1686,812.2
409.2897,68.8
409.4308,88.8
409.5361,65.6
409.6961,195.2
409.8563,83.3
410.0878,882.2
410.2051,235.3
410.3396,93.8
410.4266,20.1
410.723,132
410.7817,294.6
410.912,393.9
410.9706,20.8
411.2535,868.3
411.3748,84.1
411.4834,206.6
411.6795,97.8
411.6855,95.1
411.802,25.2
411.8785,613.4
411.9017,408.8
411.967,151.2
412.0844,905.3
412.2732,84.3
412.3041,99.4
412.3213,2738.7
412.4122,299.8
412.5286,304
412.5697,826.8
412.6907,72.9
412.785,73.2
412.8129,481.2
412.9029,90.4
412.9465,95.8
412.9644,42891.8
412.9738,20769.2
413.0664,156.3
413.2667,7870.6
413.3247,122.2
413.3695,441.3
413.4959,61.6
413.516,841.3
413.5572,68.5
413.5874,591.8
413.6601,432.8
413.6733,64
413.7759,192.4
413.8762,281.4
413.9388,99.4
413.9668,207.6
413.977,184.4
414.1307,154.4
414.2697,450.7
414.2891,84.7
414.3007,542.4
414.4512,306.6
414.4768,99.3
414.6307,120.2
414.6394,99.9
414.6769,290.7
414.7147,2023.7
414.7593,372.4
414.852,750.4
414.8833,206.7
414.9636,1933.8
414.9712,580.6
414.9972,952.8
415.0378,36.2
415.1926,105.9
415.2347,325.4
415.2823,1262.3
415.3803,129.7
415.5115,118.3
415.5337,165
415.9257,19.4
415.9772,58.3
416.0257,126.9
416.1352,17190.1
416.1596,95.1
416.1707,556.6
416.179,290.2
416.2142,1902.6
416.284,1009.9
416.4117,123.4
416.7127,411.6
416.7534,18.8
416.7713,209
416.8017,1017.9
416.851,75.7
416.9169,352.4
416.959,192.4
417.0022,1571.7
417.1383,427.8
417.2382,1988.1
417.2825,203.9
417.4277,87.6
417.5255,69.9
417.548,19.3
417.884,57.6
418.0555,105.3
418.3584,940.9
418.4562,463.9
418.5298,235
418.7296,67.4
418.9819,114563.6
419.0008,74.2
419.1285,421.2
419.3006,18.9
419.4948,410.1
419.7299,205.2
419.8545,159.5
419.8842,94
419.8941,75.2
419.985,7320.6
419.9963,574.5
420.3275,118.3
420.4599,62.4
420.563,186.2
420.6454,177.3
420.73,135.5
420.9802,2838.4
421.0654,237.9
421.0814,136.4
421.156,148.2
421.4251,449.1
421.4562,519
421.4766,19
421.5658,274.5
421.9214,7301.6
422.0632,839.8
422.257,116.5
422.3582,106.3
422.5025,106.4
422.5184,312.4
422.863,17.9
422.9259,81.2
423.1718,20.6
423.2593,218
423.3973,317.5
423.4994,57.5
423.9194,233.3
423.954,160.1
424.1673,72.9
424.1951,397.2
424.2099,343.6
424.2824,1628.2
424.4095,938.4
424.4215,121.6
424.7662,98.7
424.7928,399.5
424.834,577.2
425.3191,344
425.6709,90
426.1407,497.2
426.158,297.5
426.3594,949.7
426.4657,271.2
426.5902,155.7
426.6266,687.9
426.7414,188.6
426.7597,168.1
426.7786,23.3
426.8584,89.3
426.903,144.6
426.9191,154
426.9418,103
427.0189,515
427.1586,935.3
427.2831,771.2
427.8053,18.8
427.9033,66.7
428.0283,459.7
428.3015,455.6
428.3994,245.1
428.4925,326.2
428.542,402.6
428.8132,202.4
428.9375,9413.6
428.9812,152.2
428.9883,22.8
429.0064,1548.8
429.0894,199.4
429.2413,96.1
429.5208,98.5
429.5538,135.9
429.9147,70.3
429.9395,119.6
430.0168,100.7
430.344,146.8
430.9126,664.8
430.9216,242.6
430.9362,26.1
430.947,81.6
431.2151,582.6
431.4203,125.6
431.4492,180.6
431.5796,71.4
431.6286,713.7
431.6709,238.3
431.8791,321.6
431.9575,269.7
432.1676,1088
432.2198,89.3
432.3121,108
432.4208,408.5
432.4501,243.3
432.8185,75.5
432.8422,19.2
432.9767,108.3
433.0687,60.8
433.0937,188.9
433.2493,29.8
433.2795,18.6
433.367,24.8
433.5735,116.6
433.5917,170.1
433.6421,20.1
434.0095,354.9
434.1674,276.8
434.281,117.1
434.3745,18.6
434.5081,447
434.5415,216
434.6434,67.6
434.7084,810
434.9559,23727.4
435.215,127.8
435.2483,62.4
435.3183,100.1
435.3962,68.2
435.4961,23.8
435.9336,139.1
435.9593,721.2
436.0091,312.3
436.0448,717.6
436.1311,414.7
436.4933,93.7
436.5264,112.9
436.6325,97.8
436.8507,115.7
436.9527,788.2
437.2036,657.2
437.4146,153.8
437.5844,919.7
437.6908,79.9
437.6984,84.1
438.2262,134.2
438.2452,92.6
438.293,162.6
438.6764,20.2
438.6865,301.7
438.7294,318.6
438.7459,150
438.8765,164.6
438.8866,121.7
438.9718,2483.3
438.9847,24057.8
439.2212,1624.9
439.8957,119.8
440.3504,906.4
440.3714,130.1
440.4304,327.3
440.5861,830.8
440.5973,188.4
440.6196,110.7
440.6597,95.8
440.7449,579
440.7714,21.1
440.9254,182.6
440.9589,21.6
440.9817,3513.9
441.0022,161.4
441.1781,100.6
441.2745,115.5
441.2977,124.7
441.3141,64.2
441.3344,3192.4
441.3503,21.6
441.3818,63.7
441.5463,72.3
441.7045,425.1
441.8329,157.4
441.9131,200
441.9337,85.6
442.338,680.7
442.4351,343.3
442.4574,101.4
442.5627,67.6
442.6428,503.6
442.7207,455.2
442.9386,21.8
442.9482,128.3
443.0472,879.4
443.1431,507.2
443.1966,429.2
443.4499,95.3
443.5261,137.5
443.5788,167.3
443.588,178.5
443.814,81.4
443.939,343.1
443.9728,26.1
444.0228,222.2
444.1832,123
444.2585,124.5
444.3131,390.7
444.379,438.1
444.5316,484.9
444.5842,213
444.7802,387.6
444.8655,127.6
444.911,445.1
444.9232,492.8
445.1418,566.2
445.3159,76.2
445.4313,127
445.4581,88
445.5306,271.2
445.6454,80.9
445.7484,100.1
446.1116,144.1
446.2775,434.6
446.5081,104
446.6705,418.7
446.7918,22.6
446.8047,472.1
446.9262,64.4
446.964,406
446.9753,534.1
447.2116,135
447.2476,336.2
447.2867,93.5
447.3429,149.1
447.4538,79.8
447.7731,18.9
447.795,17.7
447.8336,73.8
447.9321,6665.2
448.3149,20
448.668,629.1
448.9335,625.9
449.0013,401
449.1544,1706.9
449.2457,184.3
449.3498,760.8
449.373,78.6
449.534,659.9
449.5949,598.5
449.6265,282.8
449.6687,313.9
449.9295,949.7
450.0109,132.6
450.1577,340.8
450.2469,104.5
450.2588,124
450.4333,324.1
450.755,875.1
450.9304,581.8
451.0327,524.5
451.1492,112.9
451.3447,140.5
451.459,185.3
451.5519,122.5
451.7564,220.9
452.1559,378.9
452.1757,19.5
452.5474,715.4
452.7234,175.4
452.8197,626.6
452.8618,19.7
452.9795,118.9
453.1142,680.6
453.2426,141.2
453.3001,809.2
453.4554,378.1
453.7067,167.3
453.789,337.7
453.8791,90.8
454.0452,123
454.0536,105
454.23,1042.2
454.2583,104.6
454.293,4971.6
454.4336,177.6
454.5454,79.2
454.5773,260.6
454.7269,20.1
454.8329,131.8
454.8968,127.2
454.9264,240.1
454.9371,37.7
454.9497,42815.2
455.0436,609.4
455.1488,413.7
455.2112,721.5
455.2205,728.4
455.2968,691.7
455.3222,624.6
455.3905,588.5
455.7924,17.1
455.9062,122
455.9532,1387.2
456.0021,195
456.1084,19.4
456.1524,847.6
456.1689,60.2
456.368,87.6
456.3813,69.4
456.5591,114.4
456.6986,831.1
456.8,444.5
456.8993,568.5
456.9467,11521.1
457.0447,159.8
457.1156,271.6
457.2333,5647.3
457.2809,283.8
457.3299,867.9
457.373,893.4
457.567,127.5
457.8866,184.9
457.9073,250.7
457.9601,100.1
458.4872,54.4
458.6262,105.3
458.6976,490.1
458.7231,665.9
458.9613,2020.3
459.1191,1527.6
459.1644,314.3
459.2484,156355.4
459.3301,282
459.7872,118.5
459.8201,416.6
459.8339,130.3
459.9332,128.1
460.1582,541.6
460.2518,30653.2
460.5696,101.3
460.6037,21.4
460.7285,92
460.9666,96095.5
461.0391,267.9
461.0776,868.6
461.1208,451.7
461.2023,682.3
461.2549,1098.6
461.6058,85.2
461.8533,198.2
461.9448,16.6
461.9702,5555.4
461.9991,579.1
462.126,67
462.2027,3044.8
462.2777,430
462.3418,125.2
462.3614,488.5
462.3917,151.9
462.6001,128.2
462.6436,344.6
462.9636,29586.7
463.203,2080.3
463.2109,3852.1
463.7326,19.8
463.8706,202.5
463.883,133.5
463.906,2685.2
463.9709,390.6
464.0595,150.5
464.0733,91.3
464.2182,2323.2
464.2434,132.9
464.3381,103.3
464.3831,117.8
464.7479,247.7
464.8566,930.3
464.9786,7868.5
465.2639,18.6
465.5604,230.8
465.5729,191.8
465.9354,624.1
465.9498,401.7
465.9813,494
466.0436,196.3
466.0667,427.6
466.2418,281.4
466.2681,87.6
466.4811,597.5
466.516,96
466.7286,463.9
466.9365,694.1
466.9493,440.3
467.048,452.8
467.2243,777
467.512,487.4
468.1162,453.2
468.2584,186.2
468.3079,345.7
468.5389,452.6
468.6144,147.5
468.7723,189.6
468.803,164.9
468.8558,512.6
469.1366,306.1
469.1466,1921.1
469.3177,117.6
469.5266,118.5
469.8747,84.7
469.9129,21.1
470.0209,68.8
470.2457,778.5
470.2669,92.6
470.3525,209.4
470.4877,261.5
470.5172,141.2
470.5463,112.5
470.8147,412
470.9235,22000.7
470.9694,165.8
470.9953,3157.3
471.1519,99.4
471.2846,840.5
471.4016,336.9
471.4434,508.4
471.4757,449.5
471.634,20.1
471.6724,22.4
472.1815,84.1
472.3034,11591.7
472.3897,319.5
472.9206,4224.1
472.9373,366.8
472.9412,392.2
472.95,399.2
472.9597,921.7
472.9718,534.8
472.9795,364.1
472.9965,433.3
473.0481,318.8
473.1491,104
473.2674,474.4
473.2744,101.9
473.4157,209.8
473.4928,599.3
473.6314,87.9
473.8492,445.4
474.127,92.2
474.1773,371.6
474.951,125.9
475.1092,332.1
475.1544,277.5
475.1712,89.5
475.2224,7990
475.5457,91.4
475.8175,64
475.8899,323.1
475.9111,19.1
475.9542,436.1
475.9747,445.8
476.0163,72.3
476.0899,36.7
476.2248,842.6
476.2756,206.9
476.316,143.6
476.4258,640.8
476.8922,192.7
476.9404,65079.2
477.0552,24.8
477.1862,307.3
477.3261,62.7
477.3432,357.3
477.3648,121.7
477.9438,3001.9
478.057,82.3
478.1863,19.2
478.3295,35516.8
478.4026,188.1
478.591,154.3
478.7174,225.3
478.9377,19113.3
478.9938,81.5
479.0034,635
479.0952,29.6
479.3327,5749.8
479.3715,418.9
479.6442,360
479.8607,419.9
479.8757,21.1
479.9978,334.7
480.0211,251.7
480.1665,172.4
480.1903,101.7
480.2093,240
480.2302,363.7
480.4999,100.1
480.7031,313.2
480.7778,72.2
480.9526,1956.6
481.0917,1401.6
481.2701,89.8
481.304,192.6
481.5052,223
481.6703,83.4
481.8458,268
482.0129,69.5
482.0951,227.4
482.2832,130.8
482.3535,20.5
482.5479,63.2
482.62,131.9
482.6623,391.8
482.7022,591.3
482.9486,943.7
483.0867,68.5
483.1706,439.6
483.2484,35000.8
483.2742,120.8
483.3844,153.5
483.4391,75.6
483.4554,434.9
483.5316,338.5
483.7438,18.6
483.8497,268.6
484.0661,116
484.2518,7623.2
484.3131,445.1
484.5948,401.7
484.6474,151
484.6802,129.4
484.7184,169.9
484.7704,112.2
485.264,50377.8
485.3149,688.9
485.917,61.7
485.9281,215
486.0134,87.5
486.0269,263
486.0536,136.2
486.1575,56.6
486.2182,365.6
486.2672,9382
486.291,714.9
486.51,807.1
486.6514,64.2
486.7133,138.7
486.8973,1635.4
487.1477,825.4
487.1933,214.4
487.2369,19.6
487.2796,28290.2
487.3001,255.2
487.3451,17.6
487.3817,298.1
487.4638,80.6
487.8183,99.5
487.8398,322.1
487.9402,67.6
488.1572,100.7
488.2699,633.2
488.2828,6771.7
488.2989,2526.1
488.6446,165.4
488.8075,464.7
488.8946,771.4
488.9672,1078.6
489.0349,17
489.086,52.6
489.1022,867.7
489.1412,436.6
489.2256,115.5
489.237,151.7
489.2694,376.2
489.3014,414.5
489.3107,481.1
489.3243,1010.6
489.3373,145.9
489.3543,4073.8
489.4246,19.1
489.9368,64.7
490.0618,79.5
490.2154,19.8
490.2908,1202.6
490.3635,247
490.896,1155.1
490.9282,106.1
491.3709,4277.3
491.4047,19.3
491.61,462.5
491.6758,475
491.8481,177.4
492.0961,109.5
492.2513,18
492.471,225.3
492.5296,176.9
492.5969,395.4
492.6608,22
492.8004,245.7
492.9146,13262.5
493.2603,145
493.3363,150
493.4321,264.6
493.5633,233.3
493.8047,266.5
493.8237,112.1
494.1306,103.7
494.2855,5494.9
494.4141,383.2
494.5753,103
494.6455,989
494.697,243.5
494.8096,134
494.8976,89.3
494.9118,4276.6
494.9667,382.4
495.3417,461.6
495.3865,119.4
495.5004,74.3
495.5574,22.6
495.5748,100.5
495.7892,72.5
495.9452,271
496.0425,457.2
496.0712,60.2
496.1614,1035
496.241,293.4
496.34,74838.4
496.5087,87.2
496.7637,443
496.9446,359.7
496.9981,79.1
497.17,20.4
497.2833,85.4
497.3234,182.7
497.3432,17109
497.4723,407.2
497.6095,422.9
497.6478,129
497.818,290.5
498.0297,518.4
498.2808,132.1
498.3475,466.9
498.3992,17.7
498.5529,499
498.6156,346.4
498.628,227.7
498.6935,84.8
498.7874,315.1
498.8999,99.1
498.9263,334.4
499.0117,149.8
499.17,135.4
499.2224,460.3
499.6366,93.3
499.6667,55.7
499.7512,852.6
499.9432,348.9
500.1167,259.9
500.311,2372.1
500.3216,346.8
500.4498,88.9
500.6203,33.3
500.6274,24.2
500.7629,109.1
500.784,244.1
500.9856,1044.8
501.2378,2164.2
501.2588,4173.8
501.274,1173
501.2978,602.9
501.3108,851.3
501.3323,117.4
501.5919,78.3
501.9424,97.4
501.9832,94.2
502.3292,8810.8
502.5452,113.1
502.7797,357
502.8159,127.6
502.8388,341.1
502.9276,157.2
503.1073,79.8
503.139,106.6
503.3339,2392.6
503.3617,398.5
504.1039,142.1
504.1427,63.9
504.3001,102.5
504.345,6413.7
504.5889,69.2
504.6023,288.3
504.6256,347.9
504.9021,174.7
504.9717,220.6
505.0678,81.6
505.106,21.4
505.1235,239
505.1393,441.5
505.3095,546
505.3292,19.2
505.3483,1975.2
505.8911,808.2
506.0048,305.5
506.2627,164.5
506.281,20.7
506.3477,354.6
506.3606,2248.5
506.861,616.8
506.8916,1703.4
506.9924,132.6
507.1974,70.4
507.2479,8080.9
507.3464,380
507.364,1713.3
507.4693,58.3
507.6806,17.5
507.8882,397.6
507.9244,402.9
508.3436,361.2
508.3841,695.2
508.6211,333.9
508.6909,349
508.712,326
508.8886,337.3
509.0048,1340.2
509.0483,290.9
509.1831,332.8
509.2637,2975.7
509.3011,83.1
509.5207,20.3
509.5475,763.4
509.7274,414.3
509.8442,20.3
509.8828,69.1
509.894,853.3
509.9321,146.3
510.0094,192
510.264,1217.6
510.5286,95.9
510.7776,420.5
511.0858,228.4
511.1244,21.8
511.1499,464.9
511.1952,918
511.3072,384.2
511.3248,219.6
511.5323,109.3
511.8842,263.6
511.9686,413.5
512.1244,87.9
512.6348,170.2
512.749,435.2
512.8054,372.6
512.8455,377.1
512.9082,20371.2
513.2547,128.2
513.3179,303.5
513.3354,63.5
513.4644,241.8
513.5036,861.9
513.7638,475.8
513.8644,68.6
513.9861,496.9
514.0551,240.4
514.1045,85.9
514.1777,113.3
514.2808,293
514.3133,413.3
514.3592,423.7
514.6584,533
514.8213,226.6
514.9055,8908.2
515.0202,500.2
515.1313,245.6
515.3709,1326.4
515.6638,57.1
515.812,105.6
515.8167,123.6
515.8211,89.3
515.9478,21.2
516.1471,857.6
516.2178,139.9
516.2886,871.5
516.306,7323.4
516.6073,391.8
516.6551,431.9
516.7442,474.7
516.9036,433.1
516.9191,687
517.0103,456.2
517.0235,141.1
517.1215,579.3
517.2107,371.5
517.3092,1021.6
517.3852,531
517.4483,315.9
517.6293,126.6
517.8294,603.4
518.3219,289666.5
518.5461,144
518.6519,455.8
518.7519,74
518.9251,41382.2
519.0365,676.3
519.1934,133.1
519.3252,63270.3
519.7079,112.2
519.8819,69.4
519.9281,2286.7
520.0183,486
520.1709,278.8
520.2271,78.1
520.2717,188.2
520.3284,5209.1
520.3402,14785.9
520.4,104.3
520.5452,807.6
520.6229,327.1
520.8858,153
520.8958,233.7
520.9221,23907.5
521.1118,180.4
521.3296,462.8
521.344,1167.3
521.5334,484.9
521.7356,266.7
521.865,93
521.9239,467
521.9769,371.9
522.2673,283.9
522.3556,26542.7
522.4633,17.4
522.6219,813.5
522.6533,347
522.8606,123
522.9184,1078.1
522.9367,3992
523.0926,127.7
523.2569,867.7
523.3141,100.7
523.3586,3203.6
523.4728,88
523.4821,20.2
523.5232,330.7
523.6046,203.2
523.7763,17.6
524.0315,1313.1
524.0708,302.1
524.2482,25.1
524.3221,169
524.3713,17193.8
524.6132,515.9
524.8451,209.5
524.9349,480.3
525.1388,17.9
525.1915,515.6
525.3755,736.4
525.6837,279.1
525.8783,75
525.9044,102
526.0005,622.3
526.33,1154.5
526.6864,580.8
526.7715,125.3
526.792,71.5
527.2491,529.4
527.5427,188.3
527.7051,70.9
527.7693,166.4
527.8084,456
527.9017,61.9
527.9205,86.3
528.0448,199.4
528.1564,72.9
528.3457,645.6
528.3787,180.8
528.7311,187.1
528.8822,8812.6
528.955,799.9
529.2344,474.5
529.3542,606.4
529.5422,273.7
530.2891,310.4
530.3191,634.6
530.3578,1361.2
530.8794,6628.9
530.9164,65.3
530.9504,528.4
530.9772,116.9
530.9816,115.3
531.2507,1248.6
531.6047,94.8
531.6568,89.6
531.6781,90.1
531.9184,106
531.9439,266.3
531.9945,418.2
532.0688,269.4
532.2535,702.2
532.2695,16.7
532.2804,619.6
532.3373,1962.4
532.5563,176.1
532.6126,77.1
532.6326,216.1
532.9652,2191.6
533.1062,333.1
533.4923,137.2
534.0194,64.6
534.2422,77.6
534.2523,17.8
534.2958,65777.1
534.3552,109
534.5091,124.3
534.7273,926.3
534.78,61.5
534.899,25274.5
535.299,11440.7
535.4314,250.6
535.6175,519.5
535.639,127.2
535.7243,812.9
535.9025,1939.9
536.1949,18.8
536.2942,1508.6
536.3615,19.1
536.8961,17674.7
537.0706,86.6
537.2255,17.5
537.3426,2575.2
537.6094,144.6
537.8354,116.1
537.8851,277.4
537.9007,921.2
537.9491,802.3
538.0608,571.6
538.1387,151.4
538.214,308.7
538.3465,122.5
538.8939,1282.4
538.9112,1725.1
538.9364,480.9
538.9815,643.5
539.829,19.8
539.9981,938.7
540.144,414.7
540.1761,632.1
540.7541,427.2
541.0563,235.5
541.2569,193.8
541.386,2448.6
541.4192,180.7
541.6321,92.3
542.2379,68
542.2771,193.8
542.3221,62907.3
542.385,22.9
542.457,778.2
542.4899,1203.2
543.1245,74
543.3253,15065.8
543.3755,248.3
543.4019,4181.4
543.4227,123.6
543.6204,419.3
543.7941,446.9
543.9109,199
543.97,87.9
544.0953,369.3
544.3376,103750.8
544.4739,115.5
544.5931,513.4
544.7908,220.6
544.8074,121.5
544.8565,460.2
544.9296,433.6
544.9482,766.7
545.2966,122.7
545.3243,157.4
545.3409,23679.8
545.3731,137.1
545.8155,269
545.9524,199.5
546.3533,78421.9
546.727,370.9
547.3566,17783
547.3937,71.1
547.434,935.4
547.524,96.2
547.7335,20.4
548.1374,91
548.1564,64.8
548.1871,69
548.5444,84.9
548.6604,585.4
548.9351,194.4
549.0955,20.2
549.4874,928
549.6668,25.5
549.8073,146.6
549.8862,86.2
550.2114,126.2
550.2603,136.3
550.3971,328.4
550.4225,279.1
550.7166,372.7
550.8306,325.6
550.8736,5546.5
550.993,245.1
551.2003,945.3
551.2814,231.9
551.3102,401.1
551.5519,161.9
551.6081,305.2
551.8311,139.3
551.9019,171.4
552.0186,75.9
552.1041,78.2
552.1762,18.2
552.321,20.9
552.3473,99.2
552.5753,72.4
552.8703,2244.5
552.8896,561.3
552.9101,301.2
552.9869,224.1
554.0061,524.7
554.4958,466.1
554.7424,445.2
555.115,109.5
555.353,91.2
555.3683,882.6
555.6227,20.4
555.8731,24.6
556.0241,107.6
556.2493,179.9
556.5685,129.4
556.6347,19
556.7442,63.6
557.0344,399.2
557.2819,1663.7
557.3831,1196.5
557.4355,401.5
557.7285,19.3
557.7718,317.3
557.8174,69.9
557.9423,131.9
558.2357,141.5
558.296,13481.8
558.8289,80.2
559.0577,476.9
559.1951,93
559.3005,1798.2
559.398,826.5
559.4127,18.6
559.6083,53
559.7706,63.2
560.0466,585.8
560.0871,144.8
560.268,52.6
560.3115,24594.4
560.5494,131.3
560.9944,616.1
561.0286,194.4
561.2084,942.3
561.3149,4095.8
561.4128,8597.5
561.8976,316.4
562.0994,116.1
562.3098,19.6
562.3273,14256.6
562.4163,641.4
562.4968,289.4
562.6075,127.8
562.6632,347.5
562.7203,60.8
563.0957,129.6
563.3319,3245.4
563.5236,194
563.5479,441.4
564.0205,566.5
564.0389,77.9
564.0661,86.1
564.1523,115.6
564.2505,317
564.3679,318.2
564.6021,155.8
564.8489,748.9
564.8617,397.5
565.1403,154.8
565.1743,358.8
565.2013,190.6
565.3706,251.1
565.5018,640.6
565.5371,246.3
565.9051,307.6
565.9617,95.7
566.0112,107.1
566.0434,314.9
566.3221,11150.3
566.3753,75.9
566.4583,474.7
566.5535,316.1
566.5993,19.5
566.6356,181.2
566.7019,85.2
566.7332,106.2
567.2364,18.8
567.3253,1231
567.4245,89.9
568.0331,147.7
568.0717,218.3
568.2448,4486.3
568.3378,8609.1
568.3963,85.3
568.6882,347.3
569.0269,105.6
569.0614,123.6
569.193,805.3
569.2493,1138.7
569.3013,66.6
569.3409,2028.5
569.3804,157.1
569.7262,72.4
569.7638,456.5
569.8433,895.5
569.9871,859.4
570.034,99
570.102,311.2
570.1406,344.5
570.2683,222.1
570.3528,2223.4
570.5077,313.6
570.8064,86.4
570.8667,7765.5
570.9798,95.3
571.0027,109.7
571.0363,381.7
571.3018,93.5
572.3026,404.6
572.6002,408.4
572.6163,310.2
572.6728,185.7
572.8646,6567.1
573.0239,492
573.3126,289.5
574.062,162.9
574.0959,68.4
574.1871,194.8
574.2426,2462.4
574.328,128.7
574.4707,261.9
574.6132,417.9
574.6917,208.2
574.8609,1066.5
574.9251,66.5
575.0048,146.3
575.1762,718.3
575.504,9316.8
575.6625,214.6
575.7119,241
576.0066,266.6
576.28,943.8
576.3407,91.8
576.5067,2806.9
576.7324,18.3
576.8838,13977.7
577.3746,496.3
577.5157,1129.2
577.8867,694.3
578.1806,177.2
578.392,1286.7
578.6241,429.5
578.881,11635
578.977,87.5
578.9975,238.2
579.0173,639.9
579.2706,218.1
579.5443,420.6
579.682,825.9
579.9015,229.6
580.0838,87
580.2603,155.9
580.3628,694
580.3783,211.4
580.5697,337.5
580.7105,76.5
580.878,1221.9
580.8946,886.9
580.9753,16.5
581.2424,919.8
581.3264,449.6
581.4493,331.6
581.4597,19.4
581.5856,498.8
581.6218,58.6
581.7587,287.2
581.974,71.1
582.0268,147.2
582.0423,93.7
582.1637,149
582.1912,153.4
582.2085,166.9
582.244,909.2
582.2545,217
582.2682,408.9
582.296,660.1
582.3223,898.5
582.3686,127.2
582.3912,786.7
582.4071,608.8
582.4598,330.8
582.4785,137.8
582.4841,135.3
582.5323,830.9
582.8923,573.1
582.9697,68.8
582.9997,143.3
583.2552,5591.9
583.3977,1483.5
583.445,145.4
583.5092,351.8
583.6926,124.2
583.8446,738
583.8908,185.7
583.9174,772.1
583.9336,1218.5
583.9475,98.6
584.0554,114.4
584.2202,434.6
584.3118,580.8
584.5155,88.3
584.613,21.1
584.7408,137.7
585.1764,353.7
585.2712,26170.3
585.318,464.9
585.3904,314.9
585.4622,227.9
585.7592,242.9
586.2748,7520.3
586.2895,71.3
586.3692,185.1
586.8418,2725.9
586.913,590.3
586.9998,371.1
587.0113,315.8
587.1396,64.1
587.2865,4696.3
587.5143,100.4
587.6134,205.7
587.7105,120.2
587.9502,174.8
587.9739,855.8
588.0697,90.7
588.2665,306.9
588.2895,1619.8
588.342,72.5
588.4024,354.1
588.5181,17.2
588.6848,19
588.8375,2938.2
589.3028,2438.9
589.4061,105.6
589.4608,19
589.5446,257.6
589.6307,89.5
590.1617,482.1
590.217,275.7
590.3224,3318.3
590.3786,124.8
590.5623,72.3
590.6787,113.3
590.6991,256.3
590.7832,49.6
590.8768,21.6
590.9305,428.6
591.2669,451.8
591.3147,4978.2
591.4078,422.9
591.4591,18.3
591.4841,22.7
591.5061,85.9
592.0467,70.5
592.0993,115.8
592.8578,9629.8
592.8824,114.6
592.899,70.3
593.3542,17.8
593.4384,81.5
593.5123,266
593.6228,87.2
593.6383,111.6
593.6828,194.5
593.8515,223.4
593.881,283.2
593.9562,925.5
594.0578,210.5
594.0753,183
594.0946,157.9
594.8548,10205.9
594.9945,273.9
595.1899,122.1
595.2916,265.6
595.365,899.5
596.0133,237.1
596.0387,663.3
596.2251,100.8
596.4194,22.4
596.5276,204
596.7,81.9
596.8531,2597.6
597.2292,122.1
597.303,139.9
597.4469,3993.4
597.4857,10464.9
597.5909,198.3
597.8566,426.7
597.987,539
598.0017,366.4
598.3318,218.4
598.4565,2272.2
598.4718,655.7
598.4764,618.5
598.4824,430.4
598.4977,164.4
598.5204,117.6
598.5856,70.5
598.6068,132.5
598.6585,210.5
598.8634,471.4
599.1662,428.7
599.3481,62.5
599.3873,904.2
599.4647,3355.6
599.5011,2505.4
599.5535,264.7
599.6267,370.7
599.6765,72.9
599.8145,170
599.8769,409.8
600.3482,299.6
600.3863,153.9
600.4234,419
600.4664,698.4
600.4786,755.7
600.4868,759.7
600.4937,595
600.6749,203.2
600.7267,122
600.8364,196.2
600.9011,688.5
601.4179,19.3
601.5204,1653.2
601.706,797.3
602.1065,281.4
602.1733,166
602.2957,1137.6
602.3452,108.5
602.4092,458
602.5232,421.4
602.6021,153.6
602.8099,491.3
602.8241,98.4
602.8384,295.2
603.0729,253.5
603.107,242.8
603.3245,550.4
603.4666,675.4
603.5352,1625.4
603.7285,125.4
604.2354,110
604.3331,268.1
604.4659,365.7
604.8233,457.4
604.8561,67.9
604.884,320
605.075,601.5
605.1644,57.9
605.2401,206.8
605.2642,72.9
605.4815,210.2
605.9101,421.7
606.2117,83.5
606.3165,103.8
606.34,72.1
606.3846,747
606.4134,595.6
606.8605,18.6
606.8876,190
606.9516,92.8
607.17,776.9
607.2525,4059.4
607.4251,251.7
607.6034,25.3
607.7428,19.9
608.0081,20.3
608.3482,135
608.3792,253.9
608.5978,292.5
608.7278,184.1
608.7976,144
608.8313,2129.7
609.0467,170.4
609.2687,5363
609.6236,296.1
609.6625,178.5
609.7637,199
609.9769,810.5
610.0459,131.7
610.5499,80.1
610.6586,115.8
610.8294,2816
610.915,73.4
611.0065,200.9
611.0903,205.5
611.2844,4209.8
611.5847,415.5
611.8121,124.2
611.8338,600.6
611.9622,751.3
612.1161,339.8
612.2885,935
612.3086,93
612.4461,530.7
612.7862,218.5
612.8266,421.7
613.1303,295.6
613.2974,1504.4
613.3476,3994.6
613.5601,429.7
613.7065,343.2
613.7571,18.3
613.9124,208.8
614.1162,803.8
614.2663,262.2
614.2805,714.9
614.3511,1276.4
614.7444,68.5
614.8595,113.2
614.8745,20.5
615.4166,187.7
615.4591,665.9
615.828,410.5
616.4434,377
616.5659,73.1
616.8039,221.4
617.3749,211.1
617.4758,8023.9
617.5878,93
617.6274,247.2
617.7879,62.6
617.8238,18.5
618.1003,25.4
618.1393,127.2
618.3997,895.4
618.4799,1176.1
618.9373,133.8
619.3575,94.4
619.4906,1804.5
619.7311,265.8
619.8249,442.7
619.9934,277
620.2369,173.4
620.2911,121.7
620.4219,246.1
620.7793,332.2
620.833,364.5
620.8541,91
620.9227,122.8
620.93,127.5
621.4087,100
621.4377,2300.9
621.4522,815.9
621.4855,3549.8
621.51,84.7
621.646,82.1
621.7018,134.3
621.9013,479.7
621.9981,347.7
622.051,127.1
622.2356,140.1
622.4393,767.9
622.4876,871
622.8091,767.1
623.0804,249.8
623.1362,13530.4
623.1681,205.8
623.2194,140
623.4633,661.1
623.4798,457
623.5028,3320.9
623.5764,161.8
623.612,838.1
623.6308,155.2
623.9001,430.5
624.1399,1102.1
624.3677,103
624.4331,306.9
624.4878,801.8
624.7927,193
624.8755,462.2
624.9214,639.6
625.0092,139
625.2839,134.5
625.297,636.3
625.4835,1360
625.5144,715.8
625.7689,428.3
625.7894,288.1
626.2843,21.4
626.8197,140.5
626.8447,185.7
627.5352,1391.8
627.5511,377.8
627.6123,55.7
627.9695,219.1
628.2021,166.6
628.2614,870.1
628.3949,896.4
628.5396,19.9
628.6737,775.3
629.153,22322.5
629.2539,928.1
629.2651,608.1
629.5908,165.9
629.9323,153
630.0384,1446.9
630.1029,144.8
630.1227,24.6
630.1567,3271.1
630.3445,913.9
630.4448,65.6
630.6234,134.9
631.0445,299.7
631.1183,70.7
631.1628,187
631.3575,518.2
631.4095,243
631.8267,19.2
632.0581,172.1
632.1593,70.1
632.2964,540.5
632.3542,678.5
633.1929,150.7
633.36,410.6
633.785,295.4
633.9333,351.6
634.4428,582.6
634.5959,427.8
634.62,855.4
634.6743,111.9
634.7135,386.2
634.8429,3051.2
635.5438,115.6
635.9035,77.4
636.0392,188.9
636.0562,75.8
636.6483,286.1
636.6938,91.3
636.8395,4116.2
636.9297,89.5
637.0128,170.2
637.4997,663.5
637.9698,239.3
638.1015,361.2
638.3015,125.9
638.4562,999.2
638.5022,316.2
638.5636,102.6
638.8364,1085.6
638.8938,81.4
638.972,464.4
639.0701,171.1
639.5996,867.7
639.7704,127.5
640.018,194.9
640.2619,206.8
640.3399,228.4
640.4141,182.8
640.7186,68.2
641.913,281.2
641.937,407.2
642.1558,895.6
642.2692,241.4
642.6385,131.9
643.0254,226.5
643.1064,120.5
643.3902,313.2
643.9222,368.1
643.9825,459.1
644.2531,477
644.303,21.6
644.3514,452.9
644.389,926.4
644.4518,179.2
644.6015,331
644.6527,83.4
644.8277,18.9
644.8745,344.9
645.1178,9204.7
645.3742,4219
645.4518,601.2
645.6169,146
645.822,371.8
646.1211,702.4
646.1564,86.3
646.8716,720
647.022,162.2
647.0768,227.9
647.094,733.1
647.1087,144.5
647.3377,24.7
647.4374,133.5
647.4538,456.1
647.5143,411.2
647.7767,22.2
647.9837,120.9
648.0588,20.6
648.105,75.3
648.2203,157.1
648.3396,104.4
648.3674,906.9
648.385,4184.1
648.4144,195.2
648.4568,210
648.672,85.4
648.7784,173.3
648.8276,145.7
649.1751,21.9
649.3463,429.7
649.4691,243.4
649.6639,22.2
649.7416,18.1
650.4396,10611.6
650.4971,938.4
650.5258,104.8
650.7714,66.9
650.816,3657.7
651.1349,39307.2
651.2013,807.5
651.4432,957
651.5212,56.6
651.5676,189.9
651.59,121.8
651.6917,94.2
651.7599,157
651.7939,70
652.1381,5732.5
652.3013,150.5
652.3478,396.6
652.4677,96.4
652.6677,448.6
652.8137,2889.4
653.1106,251.4
653.2014,18.1
653.3242,146.2
653.6383,1197.2
653.8191,382.7
654.1128,60.8
654.2261,229.2
654.249,234.6
654.325,413.1
654.5424,560.5
654.6002,442.8
654.6389,917
654.6529,116.4
654.6694,445.4
654.8102,1532.3
655.4067,460.1
655.952,714.3
656.0178,87
656.0902,150.1
656.1243,459.4
656.383,226.5
656.5655,71.2
656.8289,116.2
656.9085,107
657.8641,423.7
658.1523,20
658.1807,124
658.263,76.7
658.4082,804.2
658.5773,914.5
658.8398,149
659.011,173.1
659.0623,111.4
659.1594,226
659.4112,309.7
659.6314,200.7
659.826,119.1
660.0303,142.4
660.0827,3087.6
660.2301,124.5
660.7978,419
661.082,1896.4
661.4075,388
661.4415,144.8
661.4686,3399.5
661.7157,68.4
661.7993,403.1
661.8541,337.6
661.8891,172.1
662.0583,275.8
662.0959,93.6
662.1478,164.9
662.2535,126.7
662.399,121.6
662.4717,876.4
662.8265,327.4
663.0627,65
663.0901,286
663.1431,355.6
663.3645,500.5
663.4128,366.3
663.455,713
663.5452,198.5
663.5904,286.7
663.772,77
663.9406,129.1
664.0632,231.2
664.0906,331.5
664.2653,138.6
664.4575,152.7
664.6575,450.9
664.7634,19.3
664.7832,856.7
665.0938,19.3
665.1687,79.2
665.3302,129
665.6445,404.5
666.4297,82.3
666.4837,7150.8
666.6695,360.4
667.0666,255
667.0996,21549.3
667.3268,948.8
667.3478,405.9
667.4871,2269.3
667.5558,137.6
668.1031,1000.9
668.3489,131
668.7887,521.7
668.874,438.3
668.9831,145.6
669.0071,72.6
669.104,263.5
669.3727,698
670.3833,930
670.7873,345
670.8617,145.6
671.4148,286.1
671.9189,352.5
672.0532,392.6
672.3465,228.1
672.3638,54.8
672.3791,480.7
672.4218,22221.5
673.0017,982
673.1169,65179.4
673.2507,91.6
673.4243,3967.6
673.6117,501.7
673.6724,877
674.1205,11385.7
674.3365,990.5
674.4017,514.4
674.5537,201
675.0185,225.5
675.0931,557.5
675.1207,531.3
675.2889,147.3
675.3135,1088
675.4675,95.2
675.5441,4409.5
676.0472,4744.2
676.4175,3071.5
676.5481,730.6
677.0219,100.8
677.0551,942.1
677.2713,132.4
677.4107,84.8
677.6255,378.3
677.9598,67.3
678.0103,20
678.0693,116.3
678.1471,204.3
678.4276,91.3
678.4709,945.2
678.5577,225.1
678.9434,291.4
679.0551,441.3
679.1054,191.7
679.4905,124.9
679.5537,74.7
679.6235,889.3
679.7426,559.9
679.8177,68.1
679.906,333
679.9804,237.4
680.0703,163.2
680.1583,20.9
680.2998,133.8
680.8611,114.2
680.923,111.9
681.1999,468.8
681.3607,111.2
681.5817,438.9
681.605,441.3
681.6524,273.2
681.919,429.7
682.0647,10829
682.0982,117.6
682.446,719.9
683.0742,3287.9
683.2618,115
683.4501,7362.8
683.481,241.7
684.3533,163.2
684.5202,446.1
684.5586,444.5
684.7525,133.9
684.8632,243.8
684.906,576.3
685.0113,749.1
685.072,455.8
685.4364,16533.1
685.7223,121.2
685.7527,630.1
685.8891,110.3
686.1652,229.5
686.4392,3461.1
686.4695,348.1
686.7788,437.4
687.0193,102.9
687.3401,394.8
687.4443,108.8
687.9229,493.7
688.0084,385.4
688.2587,305.1
688.4162,7372.3
688.7332,373.6
688.863,230.5
688.9449,74.8
689.0818,18023.4
689.0908,18125.7
689.4985,421.7
689.5611,675.7
689.7083,88.2
689.7249,243.2
690.0045,89.7
690.0944,1427.1
690.3625,97.2
690.4085,132.2
690.4318,4013.9
690.4704,911.3
690.5648,456.8
690.7969,111
690.816,219.8
690.9742,179.2
691.0935,250.2
691.2223,204.4
692.0202,139.6
692.0558,136.7
692.5777,301.3
692.8025,308.5
693.3638,194.9
693.7643,127.7
693.9639,81.2
694.4654,687.4
694.7996,961.4
695.0288,67.5
695.0987,49487.8
695.4616,452.8
695.5083,2356.8
695.534,292
695.8459,66.7
696.0264,64
696.1027,8754.4
696.2651,91.5
696.7829,90.9
696.8446,111.3
697.0053,181.1
697.0724,142.8
697.0981,234.5
697.1439,82.9
697.5262,21550.2
697.8551,108
697.9352,618.8
698.0287,2606.8
698.4396,1084.5
698.4565,126.9
698.5295,9321.7
698.8641,648.7
698.9688,339.1
699.0478,144.8
699.443,676.7
699.4545,642.7
699.5369,830
699.5654,327.2
699.6641,101.2
700.045,225.4
700.0505,209.7
700.1,77.6
700.1305,93.9
700.353,548.7
700.4119,918.6
700.4523,5286.2
700.5999,129.7
700.7144,520.4
700.8599,137.1
700.9337,203.4
701.0898,84.5
701.3615,854.9
701.4108,3122.8
701.5604,8441
702.1868,18.3
702.2717,125.4
702.5635,1814.4
702.6952,925.2
703.1116,153.2
703.4909,271.5
703.5756,54237.6
703.8238,111.2
704.0464,7816
704.1304,322.8
704.3317,443.6
704.4479,26301.9
704.5216,509.9
704.5405,149.1
704.579,19059.6
704.6469,254.7
704.7306,437.5
705.0549,2800.7
705.1329,242.5
705.3812,232.3
705.452,6614.9
705.5824,658.9
705.9539,123.8
706.0529,190.3
706.107,141.4
706.2972,88.3
706.4077,594.8
706.5384,3185.9
706.769,344.5
707.2086,63.9
707.2804,110.1
707.3373,108.1
707.5431,766.6
707.8162,140.3
707.965,106.3
708.5185,228.3
709.37,396.3
709.3899,508.7
709.4937,808.1
709.6564,134.8
709.7698,104.4
710.2738,148.9
710.5564,474.3
710.773,1376
711.0618,9118.3
711.074,19333.6
711.2146,263.5
711.3667,265.6
711.5416,8130.4
711.6604,926.3
711.8132,117.1
711.9667,283.8
712.0769,1214.3
712.1725,70.4
712.2191,190.5
712.3908,74.7
712.4521,1312.7
712.4886,502.6
712.5455,3563.7
712.8968,154.9
713.0466,138.1
713.2823,130.2
713.3078,127.1
713.5016,639.9
713.6932,388.2
714.0038,593.9
714.0917,19.4
714.2575,131.5
714.3109,103.2
714.3924,135.3
714.8946,477.8
714.9762,92.8
715.0903,86.6
715.6548,99.2
715.7057,74.5
715.7682,379.7
715.846,114.2
716.0021,78.2
716.1393,1084.4
716.2724,114.5
716.4279,975.4
716.4469,614.7
716.4713,20.9
716.8266,981.5
717.0081,165.8
717.0809,25389.9
718.0447,84.5
718.0601,875.3
718.0839,3160.1
718.2216,163.3
718.4627,1273.6
718.5245,174
718.5766,826.6
718.755,131.7
718.9167,73.1
718.9607,71.8
719.057,378.8
719.5035,94.7
719.6066,872.2
719.9571,380.5
720.022,1955
720.0395,75.9
720.4211,1060
720.4982,123.6
720.5555,500
720.588,375.7
720.622,68.9
720.7068,679.6
721.0305,80.6
721.0711,53.5
721.1664,263.3
721.2127,94
721.4238,903.2
721.4399,466.7
721.4482,468
721.4784,60788.7
721.7729,296.5
721.8632,126
721.9054,258.1
721.9368,382.3
722.0301,121.4
722.2979,123.6
722.4818,23635.4
722.5185,367.3
722.6573,144.7
723.0175,132.7
723.1954,127.4
723.3813,722.4
723.4283,109.6
723.4955,13570.7
723.5416,26261.7
724.408,126.6
724.4989,3801.4
724.545,9108.5
724.6655,130.8
724.6918,187.1
725.0552,462.4
725.0711,154
725.3795,17.6
725.5575,120474.3
725.6851,58.2
725.715,251.1
725.7443,159.1
726.004,127.7
726.0282,4538.1
726.2924,20.8
726.4657,531.8
726.505,2071.7
726.5607,53695.3
726.7767,378.7
726.877,129.4
727.0384,2534.4
727.0938,85
727.2451,27.9
727.3342,323.5
727.5058,918.2
727.5444,490.9
727.5633,7260
727.583,717.1
727.6438,127.4
727.6977,472.6
728.1207,69.7
728.4471,1874.4
728.5203,11320.7
728.7115,92.5
728.7603,290.2
728.784,310
728.8424,101.7
729.1049,257.7
729.5241,3943.3
729.5913,820
730.2554,167.2
730.5386,4567.2
730.8277,178
730.9125,136.9
730.9764,897.2
731.2189,82.3
731.4096,204
731.4614,103.7
731.5434,824.9
731.6065,881.4
731.7258,93.1
732.2854,245.9
732.356,385.3
732.4796,7086.3
732.5546,52473.8
732.7542,177.1
732.7792,667.8
733.0436,7191.7
733.0562,11231.2
733.1734,114.7
733.2213,223
733.4825,798
733.5578,21002.9
733.643,126.4
733.743,133.4
733.8115,327.2
734.0565,444.2
734.4878,958.2
734.5707,18673
734.6595,199.9
734.9174,110.3
734.9763,202.4
735.055,212.3
735.2162,327.2
735.2833,79
735.3098,410.1
735.5737,6400.8
735.7674,305.2
735.9848,295
736.4419,223.6
736.5798,278.3
736.8042,19.4
736.8578,458.8
736.9942,78.5
737.0567,259.1
737.2495,331.8
737.4524,12767.2
737.8819,78.6
737.9937,78.6
738.01,151.8
738.2954,166.2
738.4546,4079.9
738.5896,278.8
738.8589,552.6
738.997,1059.9
739.0202,455.3
739.0627,21058.3
739.1189,422.3
739.4661,3057.8
739.5343,526.1
739.5891,56.9
739.622,166.9
740.0667,734.8
740.1993,90.8
740.3114,507.7
740.4596,195.6
740.5222,1092.5
740.5768,67.5
740.6017,156.5
740.7026,180
740.9605,205
741.0357,257.3
741.1479,411.3
741.4639,191.6
741.5316,14326.5
741.8709,679.7
742.0038,698.8
742.1802,632.3
742.4822,52.5
742.5343,5954.8
742.5746,3641.5
742.745,636.1
742.8383,807.7
743.0104,180.1
743.3985,163.6
743.5797,878.4
743.9108,62.8
743.9191,64.7
743.9568,593.4
744.0007,449
744.0353,232.6
744.555,2584
744.5914,4304.3
744.7806,549.4
744.8096,208
745.1565,184.1
745.4787,17110.2
745.5463,1038.4
745.5948,1242.7
745.8893,21.6
745.9898,895.3
746.2207,468.8
746.4824,4551.4
746.5705,2982.4
746.6069,5512.5
747.0507,201.7
747.0962,120.4
747.1579,103.6
747.2617,72.8
747.4944,14565.2
747.5734,205.6
747.6106,1646
747.7309,187.3
748.0107,1908.3
748.1835,529.7
748.3281,845.2
748.4975,2926.6
748.5866,104.6
749.0199,1998.2
749.4377,129.5
749.5097,7431.9
749.6549,59.2
750.3725,714.5
750.5138,1801.1
750.5477,924.8
750.6401,464.4
750.8977,780.4
751.146,229.2
751.2429,195.2
751.5737,1437.9
751.6828,122.7
751.792,284.8
752.3056,141.7
752.3531,472.5
752.5203,10091
752.5775,1015.9
752.7389,241.2
752.7564,393.7
753.2009,18.4
753.4659,161.6
753.5232,3659.5
753.5895,2132.3
754.5364,91969.9
754.5933,123.4
754.6179,373.9
754.7432,97.3
754.7486,97.8
754.7636,71.3
755.0384,7580.9
755.0787,272.3
755.3453,327.8
755.5399,36142.7
755.8037,152.2
755.9828,329
756.0308,662.1
756.2448,428.3
756.3549,87.2
756.5535,50347.7
757.4524,116.9
757.5567,19201.3
757.6191,481.5
757.7793,448.1
757.9645,75
758.0934,408.2
758.247,714.7
758.4101,276.6
758.532,185.5
758.5371,214.1
758.5703,645762.3
758.6674,75
759.5736,283627.5
759.7405,143
759.9306,127.8
759.9454,416.1
759.9847,234.7
760.1898,170.2
760.4825,74.9
760.5034,122.1
760.5867,247877.6
760.6309,85.1
761.0448,9363.6
761.4944,116
761.5895,121099
761.69,187.5
761.9894,118.1
762.1694,118.8
762.4194,103.4
762.5035,115.5
762.5924,25969
762.6271,167.3
762.7597,840.1
763.4685,209.6
763.4918,215.6
763.5261,380.6
763.5963,1680.3
763.7378,134.7
763.9775,141.1
764.0999,1013.1
764.556,4573.5
764.7259,268.4
764.8264,120
764.9899,279.3
765.5213,810.1
765.9951,224
766.0416,52.8
766.5367,5149.4
766.5738,15555.5
766.7868,123.5
766.8111,125.7
767.0907,72.3
767.112,18.7
767.5391,2855.1
767.5771,4997.8
767.8072,529.6
768.5521,5751.1
768.5903,31538.8
769.0031,138
769.1952,21.3
769.4811,2616.1
769.556,1477.8
769.5937,11758
770.0504,382
770.5106,11040.6
770.5693,1110.1
770.6076,4676.9
770.9934,4274.4
771.5139,2319.8
771.5717,556.2
771.6099,1238.6
771.7743,128.3
772.022,234.1
772.5247,3693
772.5861,6357.9
772.6216,136.9
772.8436,306.8
773.2432,21.2
773.3526,340.9
773.5093,1020.5
773.5897,3316.1
774.074,324.6
774.2104,232.5
774.3605,131.7
774.3852,202.4
774.6025,783
774.8739,285.2
775.4054,23.4
775.5235,214.2
775.5704,127.7
775.8086,136.7
776.5184,1000.5
776.619,85.4
776.6394,275.5
776.7016,98.6
777.0086,4119.5
777.2249,120.4
777.5435,1743
778.045,1313.8
778.1217,186.5
778.295,421.1
778.5366,40198.4
778.992,110.6
779.0889,566.6
779.4649,125.8
779.5399,18144.6
779.9033,355.9
779.9713,203.8
780.5522,947069.1
780.7658,569
780.9487,77.5
781.39,127.9
781.5555,420326.4
781.6154,150.9
782.4135,87.2
782.5695,467523.4
783.0265,10269.8
783.2986,85.9
783.5204,1073.4
783.5723,218072.5
783.9333,131.3
784.5865,222637.2
784.7755,164.6
784.8198,884
785.1161,96.1
785.2451,1050.8
785.3073,1123.1
785.5499,181.5
785.5895,109708.6
785.6514,1023.2
785.9675,224.1
786.6022,203742.8
786.6578,150.2
786.6862,451.3
786.9613,808.5
787.605,97802.1
787.6707,251.7
787.9138,198.6
788.2105,131.6
788.5571,8692.4
788.6049,11106.2
788.6204,13456.8
788.6825,78
789.1482,91.4
789.5614,2202.1
789.6221,7239.3
790.0435,389.7
790.0795,121.8
790.196,72.1
790.3465,184.8
790.5731,22931.8
790.6257,467
790.8205,706.2
790.8877,84
790.9486,140.8
791.0595,597.7
791.3268,23.5
791.3548,92.1
791.5763,8329.3
791.6173,191.5
791.7744,816.2
791.8517,20.9
792.0312,63.6
792.0608,741
792.5103,149.4
792.5515,933.5
792.5901,10618.2
792.6804,260.4
792.7161,599.5
792.9797,460.5
793,506.9
793.5941,1197.8
793.7979,66
794.511,4689.1
794.5673,8905.2
794.6066,32383
794.7009,140.8
794.7435,236.6
795.43,87.6
795.5692,65.3
795.6097,13615.7
795.6455,76.7
795.7637,72.4
795.9048,65.8
796.0689,465.8
796.1005,65.5
796.3304,21.3
796.5261,157641.3
796.586,3339.1
796.6247,1188.1
797.452,87.3
797.5295,67508.5
797.5711,72
797.6266,709.5
798.5428,53627.2
798.6037,150.6
799,3084.4
799.1725,250.5
799.5454,24435.4
800.0069,715
800.1072,566.1
800.1618,19
800.4065,203.7
800.5482,904.1
800.7644,232.2
801.4445,125.9
801.5406,1333.4
801.8056,84.3
802.0498,223.6
802.1944,424.9
802.5359,15233.3
802.5909,467.8
803.0532,400.8
803.0965,74
803.2369,18.3
803.2826,273.2
803.539,6376.7
804.0607,281.9
804.5521,272783.4
804.598,688.3
805.0827,669.5
805.1647,140.5
805.5555,135683.2
806.1655,20.2
806.3086,256.9
806.5685,318080.5
806.6038,532.2
807.5716,151351.6
807.6387,69.7
808.3937,638.4
808.4153,352.9
808.4923,303.2
808.532,19.2
808.5846,236244.8
808.6815,60.4
808.7359,344.2
808.8422,194.2
808.9047,292.5
809.2223,68
809.5873,124994.1
809.6542,100.5
809.6751,377.3
810.2928,814.6
810.5437,229.6
810.6022,83740.5
811.0801,304.5
811.1047,410
811.1595,189.7
811.2738,215.5
811.4033,181.1
811.605,40029.6
811.6693,6752.4
811.9709,125.7
812.2801,350.8
812.5579,1056
812.6189,22565.6
812.6658,1633.6
812.9075,69.2
813.6208,10631.2
813.6857,9727.4
814.243,123.3
814.5406,161.2
814.5732,4256.3
814.6886,4308.9
814.7156,111.5
814.898,354.9
814.942,93.8
815.157,234.9
815.5737,693.7
815.8512,95.4
816.4547,752.5
816.5888,28657.3
817.0968,401.6
817.5337,825.2
817.5913,11620
817.99,60.8
818.568,1844.7
818.6066,4873.3
819.2848,939.4
819.6097,859.4
819.9676,408.6
820.3969,475.4
820.5256,45382
820.7355,416.7
820.9619,93.2
821.0277,277.4
821.3203,96.2
821.386,229.5
821.411,165.3
821.4889,103.9
821.5299,20122.2
821.6225,487
821.6563,116.2
821.8674,77.3
822.5422,45749.9
822.8799,876.4
823.5452,19937.8
823.6401,410.8
823.6614,809.6
824.1663,614.2
824.2631,430.2
824.4561,85.4
824.558,34061
824.6744,465.3
824.9212,54.8
824.9662,145.2
825.314,552.5
825.561,18252.6
826.5614,555.1
826.7488,167.6
827.4366,148
827.7085,458.3
828.3942,130.1
828.4786,21.3
828.552,69457.7
828.9554,171.2
829.2783,419.2
829.5555,33922.4
829.6957,157.4
830.1753,314.5
830.3228,80.9
830.5686,47396.5
831.2787,112.1
831.5714,22671.2
831.6282,214.9
832.0496,258.6
832.3618,93.5
832.4436,393.9
832.5839,76540
833.3926,157
833.5875,39223.4
833.6312,115
833.6516,2193.3
834.1028,106.3
834.4041,91
834.6013,29507
834.6525,232.7
834.9657,328.6
835.1964,17.6
835.2313,483.5
835.2519,655.4
835.2806,346.2
835.4408,211.5
835.4935,64.2
835.6043,14664.9
835.6679,4079.6
835.7075,885.4
835.7513,148.8
835.9598,82
836.463,196.7
836.4979,67.3
836.6185,1530
836.6428,287.6
836.7155,372
836.7589,68.7
837.2219,148
837.3444,65.9
837.6202,319.4
837.6888,507.6
838.1438,595.5
838.4219,18.9
838.5127,2397.8
838.6138,132
838.7832,66.3
839.1499,384.7
839.2778,625
839.8324,670.4
840.1041,196.8
840.4362,81.4
840.5226,124.1
840.6189,23.2
840.8033,344.4
840.84,106.9
841.255,122.8
841.4688,455
841.5872,245.8
841.6471,176.7
842.3022,395.6
842.9597,87.2
843.0957,597.4
843.2678,342.2
843.4454,84.4
843.7184,76.1
843.9302,416
844.0418,182.7
844.0973,582.8
844.5261,10350.2
844.6098,93.7
844.6619,70.5
844.9021,86.4
845.26,408.9
845.3209,68
845.3669,116.3
845.5325,860
846.0088,359.7
846.0768,21.6
846.2311,108.6
846.4534,177.6
846.5434,4879
846.6349,213.9
846.6819,468.6
846.8865,170.2
847.3262,507.7
847.5456,1266
848.3566,315.9
848.5569,10799.5
848.7165,21.6
848.7554,139.6
849.559,2615.7
849.5943,107.2
849.9559,350.2
850.2467,236.3
850.5382,86.4
850.5723,912
850.775,373.1
851.2196,395.3
851.5641,66.2
851.9743,579.3
852.0758,856.2
852.1217,130.4
852.1688,120.9
852.2028,211.6
852.4512,126.7
852.549,814.8
853.3868,389.1
853.5495,309.5
854.4281,73.1
854.5358,739.2
854.5666,930.6
854.9088,114.8
856.1046,147.4
856.5838,7312.7
857.0285,97.1
857.3507,137.6
857.5856,5091
857.9091,135.8
858.3031,509
858.5497,60.6
858.5981,761.6
858.6363,188.8
858.8661,22.5
859.1646,429.9
859.4581,208
860.5733,235.6
860.7779,165
861.1234,226
861.4079,19.9
861.5842,94.7
862.0111,184.2
862.0392,345.8
862.3399,311
862.4597,847.5
862.5195,397.8
862.7425,306.6
863.4492,146.7
864.3988,203.9
864.5101,85.6
865.2329,336.3
866.4294,324.8
866.4784,319.6
866.5941,147.5
866.8377,108.3
866.851,106.1
866.8697,264.7
866.8838,248.7
867.2875,623.7
867.4243,137.6
867.5246,134.4
867.6815,81
868.2702,57.2
868.4832,70.2
869.14,21
869.1733,359.7
869.604,534.7
869.6833,475.5
869.7284,1710.1
869.8013,3146.6
869.8473,3287.2
869.89,2323.2
869.904,2193.8
869.9256,3734.5
869.9873,2799.5
870.0482,980.9
870.0758,1451.8
870.1105,747
870.1357,255.1
870.1601,134.5
870.2364,413
870.3089,357.1
870.471,19.3
870.9431,87.3
871.6329,102.3
871.8574,293.6
871.9207,395.4
873.7563,169
873.9457,86.5
875.0736,853.1
875.6989,358.3
876.4102,71.2
876.5236,215.6
876.576,831.9
876.7201,75.3
876.786,198.6
877.6948,19.8
877.8167,199.1
879.3997,232.4
879.5244,236.1
879.5548,19.7
880.076,156.3
880.1578,168
880.7915,337
880.8537,141.6
881.4837,621.3
882.0465,537.7
882.254,67
882.5749,209
883.1001,211.8
883.2888,123.5
883.418,738.1
883.8736,113.5
884.4358,62.6
884.4638,428.4
884.914,149.9
885.2755,451.1
885.4454,270.2
887.3397,649
887.7013,687.9
887.9005,314.3
888.216,971.3
888.456,173.6
888.5199,775.4
888.5962,86.1
889.2721,146.9
889.3948,76.7
889.5019,249.7
890.8553,21.8
891.0382,18.7
891.7015,436.8
891.9143,177.5
892.2848,142.2
892.3817,579.5
893.4052,314
894.1373,185.4
894.8117,382.5
895.4196,447.3
895.8203,19.3
895.9395,351.5
895.996,65.3
896.9182,298.5
897.4616,23
898.1105,354.4
898.5017,445.4
899.1417,1277.9
899.2298,733.4
899.7194,623.1
899.9505,91.9
900.1477,20.6
900.3771,104.1
900.4789,303.6
900.7277,90.8
900.8038,248.4
900.964,432.1
901.0609,75.4
901.4238,243.8
902.0439,68.2
902.4614,925.6
902.607,144.7
902.7372,741.6
903.0562,484.6
904.1399,20
905.4527,19.7
905.4988,115.1
905.5526,242.5
905.874,166.8
905.9834,18.8
906.0257,606.5
906.915,150.4
907.1377,232.2
907.2843,166.8
907.8943,138.4
908.0437,25.2
908.3094,59.2
908.5128,214.9
910.0143,98.4
910.2941,57.5
910.3237,20.9
910.7363,115.9
911.3356,297.8
911.9458,23.3
913.0436,363.4
913.0688,221.6
913.4641,52.8
913.5553,147.6
913.6384,826.3
914.2737,221.3
914.7684,274
915.2039,229.7
915.4559,417.2
915.5851,354.2
916.3479,121
916.3764,20.8
916.5025,383
917.3197,89
917.4138,427
917.5043,411.1
917.5725,19.4
917.6571,200
917.6848,24.6
918.2281,204
918.4792,21
918.5411,97.4
918.5686,243.8
919.0786,112.5
919.8755,81.5
920.1572,22.2
920.2598,132.1
920.344,400.2
920.5532,70.7
920.8513,219.9
921.0782,74.8
921.4992,236
921.8184,226.7
921.9115,944.3
921.9808,75.7
922.3046,64.3
922.3552,226.3
922.839,218.2
923.0595,152.2
923.3132,376.6
923.4724,147.7
924.9432,922.7
924.9733,87.4
925.0947,307.8
925.2726,960.1
925.5324,396.9
925.6707,21.4
925.8593,62.9
926.6966,457.4
927.1123,21.4
927.7414,78.4
928.1281,128.6
928.6877,376.4
929.243,302.1
929.4889,113
929.5948,160.9
929.6812,828.3
929.7848,150.4
930.1507,1170.3
930.2558,371.9
930.6538,288.1
931.0817,74.7
931.4123,399.4
931.6559,64.5
932.1018,188.7
932.3113,596.7
933.3155,107
933.3834,75.9
933.4944,113.3
933.6273,617.9
934.2373,118.1
934.6729,162.6
934.7076,73.7
935.458,65.4
935.6024,252.7
936.0757,977.8
936.4772,224.1
936.7642,67.6
937.334,287.4
938.9802,421.9
940.4294,371.2
940.5739,558.6
940.6013,721.5
940.8029,175.6
940.9048,103.6
941.6573,472.6
942.2222,1004.5
943.0558,117.4
943.3261,53.1
944.0399,94
944.3313,127.5
944.8579,414.3
944.9993,210
945.4671,109.9
946.2702,126.5
948.1507,19.3
948.2957,578.3
948.4386,122.5
949.5157,241.7
949.6802,94.6
949.8017,223.8
950.0687,204.3
950.1338,685.7
950.1878,299.8
950.2761,338.7
951.2189,21.3
951.3765,666.6
951.9239,82.8
952.3894,239.2
952.8207,243.7
952.8843,337.8
952.9752,106.4
953.016,241.9
953.2819,195.3
953.4439,162.5
953.75,78.2
954.0616,167.9
954.5231,63.8
955.3034,20.9
956.3028,261.2
956.4362,594.5
956.7033,311.1
956.9007,619.5
957.0234,315.3
957.2333,198.9
958.2857,74.1
958.931,23.4
959.1393,941.3
960.1235,978.5
960.297,379.9
960.352,144.8
960.6119,83.2
961.1286,113.6
961.1676,174
961.3921,108.6
962.2649,434.8
962.7431,388.1
963.0379,19.2
963.596,95.5
963.8584,111.3
963.9089,103.4
964.6378,187.1
964.8069,83.4
965.1758,865.6
965.2095,286
965.2403,379.1
965.2735,165.1
965.5439,169.3
965.7678,91.6
966.0859,280.7
966.1785,70.2
966.58,279.6
966.6523,23.5
966.963,1006.3
967.2232,70.6
967.6581,331.5
968.9599,203.4
969.248,93.2
969.7308,111.2
969.8332,133.2
970.1663,133
970.233,17.8
970.3937,114.5
970.6641,498.9
970.7888,581.2
971.514,98.8
971.7602,130.1
972.0328,443.6
972.2078,155.8
972.2402,131.5
972.3666,17.8
972.4224,153.5
972.7903,19
972.9811,252.6
973.259,105
973.4285,176
973.6101,478.2
974.0663,302.4
974.4999,323.3
975.1599,82.5
975.3247,422.8
975.9029,89
977.2585,938.1
977.5336,19.6
977.7508,161.8
978.0626,506
978.5013,84
979.2284,192.2
980.1703,188.1
980.2793,606.1
980.7215,18.8
981.0479,168.3
981.1098,548.7
981.4294,89.2
981.5336,201.6
981.7738,90
981.8929,74.2
983.0314,19.4
983.453,111.2
983.5136,191.2
983.7966,121.3
986.2593,18.5
986.2893,206.5
986.6134,194.3
986.8877,505.8
987.7661,647.4
987.9714,477.3
987.9985,454.6
988.1907,72.8
988.5026,19
988.5728,813.5
988.6983,1853.2
989.0548,400.7
989.1085,72.3
989.2788,253.1
989.5155,149.9
989.99,282
990.1076,739.9
990.9165,132.1
991.3105,81.1
991.3605,70.4
991.5512,19.7
991.7076,980.9
991.827,510.7
992.7289,871.6
993.4606,133.5
994.4167,141.9
995.8333,181.7
995.9338,149
996.2255,69.9
996.2772,404.4
996.6253,135.6
997.3947,374.3
997.6507,415.3
998.6792,472.3
998.7109,303.5
998.9615,412.5
999.4389,135.3
999.511,100.3
999.6695,247.3
999.9893,315.1
