SPECTRUM - MS,
61.RAW,
FTMS + p ESI Full ms [50.00-1000.00],
Scan #: 1-40,
RT: 0.01-1.97,
AV: 40,
m/z,Intensity

50.0026,359.3
50.0062,428.8
50.0066,217.8
50.0141,18.4
50.0209,203.1
50.0357,268.2
50.0431,216.7
50.0615,625.9
50.0631,121.7
50.0832,289.5
50.0922,130.2
50.1054,496.8
50.1179,32.2
50.1405,522.5
50.1547,198.3
50.1624,114.2
50.179,148.6
50.181,140.9
50.1824,452.5
50.1963,498.1
50.197,454.9
50.2008,313.9
50.2016,356
50.2043,18.8
50.2055,134.7
50.2089,19.2
50.2161,369.4
50.2236,119.8
50.2353,16
50.2648,126.1
50.2689,541
50.3005,526.4
50.31,291.8
50.33,223
50.3466,259
50.3586,446.4
50.363,235.9
50.37,371.5
50.4048,149.5
50.415,551.3
50.4241,668.6
50.4275,120.2
50.4325,186.8
50.4343,471.8
50.458,532.9
50.4964,234.7
50.514,170.9
50.5388,110.9
50.5414,128.1
50.5451,188.4
50.5465,610
50.5548,284.2
50.5605,196.6
50.5682,118.2
50.5705,284.8
50.5725,131.1
50.592,282.7
50.5929,434.2
50.5953,247
50.5963,357.4
50.5994,107.7
50.6081,16.8
50.6246,374.5
50.6285,18.1
50.6352,158.3
50.6353,165
50.6354,185.7
50.6429,657.3
50.6452,164.4
50.6464,17.1
50.6526,300.5
50.6581,527
50.6643,223
50.6655,365.3
50.6769,331.3
50.6846,711.5
50.719,374.8
50.72,170.3
50.7486,469.5
50.7535,153.8
50.7815,313.4
50.7828,118
50.8022,297.3
50.8067,215.1
50.8188,115.2
50.8362,476.5
50.8412,346.1
50.8452,591.3
50.8503,131.7
50.8518,263
50.8557,15.6
50.8913,156.4
50.9229,173.1
50.9281,477
50.9349,699.8
50.9467,201.7
50.9598,793.1
50.9735,375.5
50.9764,98.5
50.9771,301.1
50.9819,111.5
50.9878,15.8
50.9981,110.2
51.0033,128
51.0039,188.3
51.0096,708.7
51.037,268.7
51.0536,17.9
51.0641,15.9
51.0716,308.3
51.0718,429.8
51.0758,119.3
51.1107,645.7
51.1168,124.2
51.1184,338.5
51.1221,119.4
51.1422,559
51.1552,154.3
51.1623,17.9
51.1711,385.9
51.1834,471
51.1844,123.7
51.225,154.8
51.2336,151.7
51.3016,363.7
51.3055,472.7
51.3242,386.4
51.3249,499.3
51.3259,155.6
51.3285,668.1
51.3296,539.9
51.3401,660.7
51.3479,271.5
51.3598,610.7
51.4141,158.7
51.4158,580.9
51.4199,174.3
51.4221,208.8
51.4236,213.4
51.4274,165.1
51.437,498.4
51.4607,19.4
51.4678,123.8
51.4751,160.5
51.4978,650.3
51.5015,566.3
51.5033,574.7
51.5225,245
51.5415,365.4
51.5501,18.1
51.5506,217.7
51.5605,16
51.5738,648.1
51.6708,321.7
51.675,268
51.6915,260.6
51.6976,18.6
51.7054,536.1
51.7071,1238.8
51.7261,273.4
51.7364,20.4
51.7448,20.7
51.7541,17.2
51.7672,21.9
51.7687,146.2
51.7691,255
51.8145,160.5
51.8162,599.1
51.827,455.4
51.8711,240.4
51.8755,641.9
51.9353,142
51.9379,201.9
51.9503,219
51.9709,476.7
51.9715,16.7
51.9733,228.2
51.9752,19.1
51.9758,311
51.9807,723.9
51.9995,141.5
52.0024,21
52.0224,357.4
52.0257,357.1
52.0274,378.6
52.0436,305.9
52.0516,223.3
52.069,152.9
52.0708,297.8
52.0734,139.9
52.0746,17
52.0849,170.3
52.1094,19.9
52.1233,17.4
52.1398,1032.6
52.1566,210.1
52.16,444.4
52.1902,141.3
52.1967,567.6
52.1996,320.7
52.2008,17.7
52.2073,224.2
52.212,165.2
52.2709,17
52.2787,492.1
52.2847,417.9
52.2923,138
52.2941,234.4
52.2998,131.9
52.3228,525.5
52.3327,17.5
52.347,588.3
52.3494,331.1
52.3497,351.2
52.3528,159.9
52.3596,144.1
52.3608,148.2
52.3687,220.5
52.3708,891.9
52.3812,143.8
52.3828,302.8
52.4049,358.8
52.429,320.2
52.4398,619.1
52.4464,205.3
52.4526,612.6
52.4588,329
52.4645,111.9
52.4762,125.7
52.4773,238.1
52.4953,124.7
52.5026,172.4
52.5097,454.5
52.5119,352.3
52.5162,221.9
52.5328,189.1
52.5613,208
52.5629,740.5
52.5643,214.5
52.5948,303.2
52.6102,460.6
52.623,16.9
52.6354,381.4
52.644,17.5
52.6609,321.4
52.6901,496.3
52.6931,247
52.7133,755.3
52.7158,152.6
52.7163,130.7
52.7286,189.5
52.7551,17.6
52.7678,559.4
52.7765,107.1
52.7911,136.6
52.805,598.4
52.8126,294.4
52.8289,192.2
52.8295,169.6
52.8301,65.6
52.8305,42.2
52.8309,213.4
52.8314,1085
52.8328,2551.7
52.8338,2322.2
52.8346,5556.9
52.8356,1467.1
52.8361,1038
52.8442,20.1
52.8493,126.9
52.8575,138.3
52.8704,16.9
52.8892,283.3
52.899,569.1
52.9004,122.9
52.905,146.7
52.9139,567.7
52.9144,281.5
52.9209,460.7
52.9214,152.3
52.9257,198.6
52.9294,139.8
52.9365,166.2
52.9383,414.1
52.9388,324.2
52.9447,577.4
52.9654,607.9
52.9708,481
52.9721,167.5
52.9733,286.9
53.0066,306.9
53.0136,412.1
53.0157,15.6
53.0164,17
53.0196,428.4
53.0201,19.2
53.0319,387.3
53.0528,182.4
53.0673,197.8
53.0725,372
53.0793,140.5
53.0943,117.3
53.0948,122.9
53.1065,516.4
53.144,306.8
53.1454,200.3
53.1459,15.7
53.1557,17.7
53.1643,137.2
53.1845,482
53.1899,297
53.1935,141.4
53.1956,378.7
53.2069,117.6
53.2358,16.2
53.2579,731.4
53.2645,111.8
53.2938,126.7
53.3,313.3
53.341,127.5
53.3606,280.2
53.3648,209.5
53.3704,233
53.3733,290.6
53.3764,522.1
53.404,15.7
53.4102,485.8
53.4237,209.1
53.4364,594.4
53.4567,527.2
53.4612,334
53.474,192.1
53.4766,237.7
53.4772,317.4
53.4804,473.7
53.501,217
53.5211,610.5
53.5271,17.5
53.5385,427.1
53.5505,299.9
53.5575,105.4
53.5626,390.6
53.5644,317.1
53.566,216.9
53.6039,220.4
53.6129,22
53.6212,113.8
53.6227,523.7
53.6375,139.7
53.6457,352.4
53.6469,349.9
53.6504,385.6
53.6836,507.8
53.6883,590
53.6912,431.9
53.7336,15.7
53.7471,14.7
53.7685,481.2
53.7864,519.1
53.7987,15.5
53.8205,471.4
53.8312,17.4
53.8353,273.9
53.8442,461.4
53.8473,207.8
53.8481,188.5
53.8507,140.2
53.8548,492.7
53.8679,406
53.8685,281.9
53.871,602.1
53.876,214.2
53.889,134.1
53.9051,14.9
53.9069,19.5
53.9203,219.2
53.927,420.7
53.9321,126.6
53.941,226.9
53.9469,162.2
53.9622,610.9
53.9781,187.7
53.9907,18.1
53.9919,292.1
54.0094,614.2
54.0233,15.5
54.046,309.4
54.0528,484.9
54.0565,657.6
54.0574,337.5
54.058,359.2
54.0609,199.9
54.0683,15.9
54.0882,555.7
54.1022,357.1
54.1056,477.2
54.1417,181.5
54.147,110.7
54.1594,681.6
54.1768,320.3
54.1871,152.9
54.2001,531.9
54.2091,446.4
54.2093,411.3
54.2161,598.9
54.2369,166.3
54.2574,618.2
54.2834,548.1
54.3121,187.5
54.3179,579.3
54.3288,316.4
54.3333,182.8
54.334,330.9
54.3397,17.8
54.3528,392.8
54.3547,608.4
54.3834,18.1
54.3878,185.9
54.3887,315.5
54.4016,596.1
54.4032,439.1
54.4187,578.5
54.4306,132.7
54.4378,310.7
54.4406,303.4
54.4578,558.2
54.4788,218.6
54.4945,183.9
54.4951,406.5
54.5319,733.2
54.5386,17.8
54.5923,241.1
54.5994,319.8
54.6245,154.5
54.6285,214.5
54.6646,483.6
54.6792,138
54.6811,153.4
54.6901,220.5
54.6916,373.7
54.7291,149.4
54.7336,527.6
54.7616,266.6
54.7816,309.9
54.785,16.6
54.8009,586.8
54.8157,320.1
54.8285,124.5
54.838,213.7
54.8423,458.9
54.8449,562.5
54.8631,149.4
54.874,178.4
54.8813,638.3
54.8824,172.4
54.8906,596
54.9057,484.8
54.9137,433.6
54.9205,107.1
54.9775,124.8
54.9797,156.7
54.9808,210.7
54.9934,251.6
54.996,325.4
55.0118,217.9
55.0306,297.7
55.0454,204.6
55.0512,1124.9
55.059,114.2
55.0749,17.2
55.0926,252.6
55.0952,128.9
55.0979,159.9
55.1139,16.1
55.1196,574.3
55.155,543.7
55.1648,364.7
55.1678,354.7
55.1811,542.3
55.1956,18.1
55.2163,580.2
55.2406,441.3
55.2462,495.3
55.2507,16.2
55.2648,121.5
55.2802,570.2
55.2888,140.8
55.3016,184.2
55.3147,452.4
55.3276,462
55.3383,286
55.3655,17.3
55.3774,16.5
55.4356,242.9
55.4428,355.4
55.46,580
55.4713,421.1
55.4794,16.9
55.4928,132.2
55.4941,109
55.4991,15
55.5157,16.7
55.5244,540.5
55.5261,146.6
55.5266,428.8
55.564,194
55.5766,333.4
55.6167,681.1
55.6185,162
55.6369,224.7
55.6408,174.6
55.6555,277.5
55.6728,331.2
55.6757,656.6
55.7034,396.6
55.7063,277.8
55.7079,515.9
55.7115,523.7
55.74,214
55.749,277.7
55.7893,110.8
55.7984,153.9
55.7996,136.7
55.8067,306.7
55.8226,16.1
55.8563,16
55.8616,305.9
55.8753,136.2
55.8994,619.3
55.917,440.8
55.9316,602.4
55.9361,564.7
55.9377,594.7
55.949,511.1
55.9674,348.7
55.9754,184.9
55.9772,337.8
56.0148,17.3
56.0274,134.9
56.0651,121.6
56.0787,407.7
56.0811,113.3
56.0837,17.7
56.1075,17.4
56.123,557.8
56.1372,15.2
56.1408,137.9
56.1785,18.8
56.18,394.1
56.1866,470.5
56.202,177.6
56.2207,375.4
56.2279,155.9
56.2311,18.5
56.2321,689
56.2366,219.3
56.2501,19.3
56.2618,212.1
56.2663,123.4
56.274,15.5
56.2827,536.2
56.2954,19
56.3204,285.5
56.3307,489.5
56.3469,722.7
56.3501,633.6
56.3509,308.7
56.3511,306.5
56.376,216.6
56.4003,189.5
56.4059,133.5
56.4084,324.5
56.4092,161.2
56.4132,97.2
56.4723,206.1
56.4976,114.1
56.504,305.3
56.5258,17.6
56.5364,155.9
56.5533,192.9
56.567,582.6
56.5731,227.7
56.5919,18.6
56.6315,20.2
56.637,568.5
56.6682,115.3
56.6903,275.5
56.7022,452.7
56.7087,247.7
56.7242,197
56.7389,575.4
56.749,125.9
56.7675,117.6
56.768,590.5
56.7982,17.2
56.8043,156.6
56.8213,503.7
56.826,581.8
56.8292,16.7
56.8313,145.6
56.8331,16.3
56.8434,181.1
56.8445,19.8
56.871,17.7
56.891,16
56.9103,365.7
56.9156,519.2
56.9168,166.9
56.9509,18.7
56.9673,333.7
56.9725,23.4
56.9785,705.2
56.9935,120.7
57.0062,290.8
57.0086,16.8
57.0205,138.9
57.023,125.9
57.029,288
57.0315,299.8
57.037,107.8
57.0411,18.1
57.0535,136.7
57.0647,234.6
57.0674,486.8
57.0844,164.3
57.1124,18.4
57.1249,203.6
57.139,18.6
57.1488,696.1
57.1655,157.7
57.2301,284.9
57.2345,115.3
57.2355,117
57.3135,478.7
57.3295,16.1
57.3318,20
57.3888,514.9
57.3961,216.7
57.4292,356
57.491,362.4
57.5239,136.9
57.5304,15.2
57.5415,19.1
57.549,612.7
57.5492,572.3
57.5647,247.7
57.5746,278.9
57.5818,287.9
57.6113,190.4
57.6184,155.7
57.6294,16.5
57.6327,252
57.6537,383.7
57.6917,134.9
57.699,102.5
57.7293,485.6
57.7511,251.8
57.7587,202.2
57.8036,171.2
57.818,156.1
57.8289,122.1
57.8293,177
57.8702,473.1
57.8747,335.3
57.8921,448.4
57.9052,393
57.9411,129.4
57.9623,325.1
57.9642,219
57.9646,17.2
57.9753,118.6
57.978,110.6
57.9821,16.8
57.999,238.9
58.0073,17.3
58.0091,18.2
58.0107,176
58.0115,107.2
58.012,314.3
58.0227,339.3
58.0298,576.5
58.0367,17.7
58.0589,151.5
58.0823,145.8
58.0841,121.2
58.1041,256
58.116,556.9
58.1177,137.9
58.1335,327.5
58.1533,253.8
58.1656,679.9
58.1737,17
58.1879,119.1
58.1983,342
58.2189,550.6
58.2274,15.3
58.2289,211.1
58.2451,496.2
58.29,420
58.2964,177.9
58.2988,620.7
58.3009,293.1
58.3049,251.5
58.3111,657.9
58.3215,606.8
58.3275,129.3
58.3308,180.5
58.3753,177.5
58.3764,148.1
58.3823,266.9
58.3942,697.3
58.4018,114.2
58.413,246.9
58.4163,273.2
58.4174,16.3
58.4347,377.3
58.4419,310.5
58.4441,256.6
58.4532,331.8
58.4721,191.1
58.4808,456.1
58.4991,366.6
58.5142,123.1
58.5187,151
58.5344,113.9
58.5651,19.2
58.5793,162.9
58.5845,158.3
58.5939,133.1
58.5999,255.4
58.6016,202
58.6246,182.4
58.6322,135.7
58.6388,17.6
58.642,124.4
58.6452,507.9
58.6458,206.1
58.6495,273.3
58.6592,662
58.6762,333.9
58.6903,137.9
58.6933,166.2
58.697,121.3
58.7053,259.7
58.7145,317.3
58.7152,284.5
58.728,157.1
58.7372,503.4
58.7579,315.6
58.7831,154.1
58.7847,126.7
58.7853,179.8
58.7975,20.7
58.8503,146.1
58.8549,294
58.8685,109.3
58.8794,362.8
58.8886,126.6
58.8985,477.2
58.9169,202.8
58.9182,377.5
58.9188,114.1
58.9266,560.9
58.9478,285.3
58.9653,130.5
58.9698,430.8
58.9847,475.3
58.997,189
58.9977,492.4
59.0079,108.8
59.0141,132
59.0443,106.6
59.082,477.9
59.1035,367.6
59.1092,399.4
59.1162,158.2
59.1336,125.9
59.1347,121.2
59.1534,122.1
59.1537,114.3
59.1565,296.9
59.1854,17.7
59.2041,147.1
59.2064,595.3
59.2162,142.3
59.2324,295.8
59.2524,120.4
59.2763,195.8
59.2773,17.2
59.2848,270.5
59.3041,470.9
59.3125,166.2
59.3126,133.1
59.3399,16.3
59.3497,154.3
59.356,216.8
59.3699,228.5
59.3718,17.7
59.3746,346.3
59.3754,178.7
59.3807,17.5
59.387,17.3
59.3952,145.9
59.4154,580.9
59.4217,609.4
59.449,466.4
59.4524,198.1
59.4643,482.7
59.4792,112.2
59.4933,149.2
59.4983,608.5
59.5046,610
59.511,139.9
59.5146,200.5
59.5198,321.8
59.5391,200.4
59.5417,152.9
59.5502,383.2
59.5563,442.2
59.5622,159.1
59.5657,191.5
59.5758,144.6
59.5798,255.3
59.5884,250.9
59.6018,348.7
59.6132,207.8
59.6177,98.7
59.6203,158.3
59.6218,16
59.6481,19.4
59.6876,146.9
59.7002,638.2
59.7051,217.6
59.7236,652.5
59.7366,17.5
59.7486,207.6
59.7751,219.5
59.7771,111.1
59.7924,138.1
59.7932,519.4
59.7984,371.1
59.8184,207.4
59.8224,422.2
59.826,493.3
59.8853,21.7
59.89,151.8
59.8991,180.4
59.9091,178.1
59.9136,180.2
59.9138,163.2
59.9209,369.8
59.927,624.8
59.9306,532.6
59.9609,396.1
59.9706,530
59.9848,376.6
59.9857,689.7
59.9875,185.2
60.0035,462.7
60.0089,527
60.0101,161.3
60.0124,399.5
60.0247,579.5
60.0263,279.6
60.0271,204.1
60.0362,127.8
60.0389,151.7
60.0491,140.5
60.0523,359.5
60.0601,620.7
60.0697,249.4
60.1185,16.1
60.1309,17.4
60.1421,332.8
60.1466,199.5
60.1529,143.4
60.1591,558
60.1634,601.8
60.1701,19
60.1768,16.4
60.2018,207.5
60.2231,600.5
60.2283,227.8
60.2492,502.7
60.252,364
60.2717,534.3
60.2911,145.4
60.3089,632.8
60.3157,241.1
60.337,16.1
60.3883,20.7
60.3905,536.9
60.4012,474.6
60.4176,149.3
60.4293,342
60.4332,192.5
60.4403,17
60.4414,228
60.457,324.8
60.4678,378.6
60.4801,638.5
60.5037,18
60.5062,251.1
60.5249,123.5
60.5353,120
60.5366,156.2
60.5443,21.3
60.5644,516.9
60.5666,102.4
60.5718,20
60.5824,16.1
60.5914,153
60.6045,157.2
60.6377,314.6
60.7332,430.5
60.7484,165.1
60.7487,456.8
60.7752,278
60.8083,15.9
60.8094,287.4
60.8536,551.6
60.8616,338.6
60.8962,17.4
60.898,340.5
60.9018,154.8
60.9082,261
60.9182,229.5
60.9229,148.8
60.9256,251.7
60.9264,467.9
60.9286,497.2
60.9376,235.8
60.9525,16.3
61.0132,569.2
61.0165,704
61.0241,588.9
61.0309,184
61.0372,233.4
61.0434,317
61.0466,212.4
61.0491,19.3
61.0532,368.9
61.0635,335.6
61.066,187
61.0693,591.4
61.0749,16.2
61.0847,361.1
61.0863,564.3
61.0986,241.8
61.1007,564.5
61.1108,441.8
61.1201,124.2
61.1383,662
61.1569,315.5
61.1724,122.4
61.191,218.5
61.202,178
61.2058,16.4
61.2081,20.4
61.2087,626
61.2329,148.3
61.2346,372.7
61.257,120.7
61.265,302.2
61.281,149
61.2816,486.5
61.286,195.7
61.3419,16.7
61.3443,125.3
61.3505,296.7
61.3926,203.8
61.393,141.1
61.4132,147.9
61.4302,551.7
61.4325,527.5
61.4339,420.6
61.4366,202.4
61.4375,140.3
61.4529,660.4
61.4882,537.5
61.4902,517.5
61.5276,20
61.555,458.5
61.5644,630
61.5714,304.1
61.5974,391.2
61.5991,177.5
61.6004,449.4
61.6457,132.7
61.6633,20.3
61.7136,121.5
61.7154,541
61.7206,18.2
61.7312,20
61.7368,363.1
61.7577,290.5
61.762,524.1
61.764,341.6
61.7647,256.4
61.7719,796.4
61.8141,484.1
61.8261,21.6
61.8284,549
61.8508,128.2
61.8518,329.2
61.8602,533.1
61.87,535.4
61.8912,550.9
61.8969,190.1
61.905,128.9
61.9142,206
61.9355,496.8
61.9504,573.3
61.951,466.1
61.956,366.7
61.963,155.4
61.9684,123.1
61.9696,511.6
62.007,19
62.0228,336.1
62.0433,384.7
62.0456,122.3
62.0534,247.4
62.0579,175.2
62.0584,169.2
62.0608,182.6
62.0706,367.9
62.0721,222.2
62.0752,20.2
62.0838,331.8
62.0879,271.3
62.155,513.7
62.1597,18.7
62.1623,483.2
62.1664,647
62.1729,128.6
62.1905,186.6
62.2133,272.4
62.2346,277.6
62.2567,196.8
62.2607,257.5
62.2629,133.1
62.2705,16.4
62.2722,109.4
62.2952,701.6
62.3082,399.8
62.3215,404.1
62.3383,176.5
62.35,336.3
62.3943,425.6
62.411,458.8
62.4153,348.6
62.4216,121.3
62.4258,22.7
62.4651,98.9
62.4913,297.6
62.5042,558.8
62.5067,120.3
62.5148,397.5
62.518,331
62.5285,391.8
62.5298,581.5
62.5354,212.4
62.5498,282.4
62.5528,20.4
62.5537,197.1
62.5545,299
62.5644,553.5
62.5649,200.6
62.5668,601.6
62.5752,286.1
62.5802,499.5
62.5865,205.1
62.6053,529.2
62.617,435.7
62.625,256.8
62.6425,243.5
62.6445,333.2
62.6554,262.8
62.6783,17.3
62.6797,221.5
62.6812,522.1
62.7027,131.3
62.7047,19.9
62.7305,176.9
62.7374,363.4
62.7382,127.9
62.7817,17.7
62.7853,177.7
62.7931,160.5
62.8034,17.3
62.8104,425.3
62.8324,153.1
62.8552,119.2
62.8611,380.7
62.8655,127.3
62.8677,565.4
62.8799,167.4
62.8834,505.3
62.9125,248.9
62.932,626.2
62.9456,19.5
62.9608,146.6
62.9688,589.7
62.9982,165.2
63.0146,210
63.0565,508.4
63.0624,525.4
63.0686,146.6
63.0703,264.5
63.0886,133.7
63.1047,188.1
63.1066,17
63.1106,518.8
63.131,672.8
63.1456,639.9
63.1473,231
63.2128,137.9
63.2311,18.4
63.2529,220.3
63.2536,422.2
63.2713,259.6
63.2858,249.5
63.2932,278.5
63.2955,274.9
63.341,135
63.3443,650.7
63.3817,233.5
63.3836,444.2
63.394,354.8
63.4267,239.8
63.4298,218.6
63.4536,18.3
63.4572,247.6
63.468,583
63.4779,182.3
63.4887,228.4
63.5136,174.1
63.5156,231.7
63.5508,611.2
63.557,139.2
63.5604,575.5
63.5989,650.3
63.6004,443.2
63.6013,21.1
63.6042,188.7
63.6055,121
63.613,141.6
63.6525,478.7
63.6683,744.7
63.6693,162.5
63.6706,103.2
63.6774,280.4
63.7064,625.7
63.7256,234.9
63.7286,17.3
63.7363,732.3
63.7483,539.9
63.7545,656.2
63.7791,19.7
63.7827,137.9
63.792,15.9
63.7944,383.2
63.8019,589.1
63.8079,265.1
63.8167,466.6
63.825,394.1
63.8255,470.9
63.8331,232.3
63.8628,22.9
63.882,614.6
63.8913,15.9
63.8925,757.3
63.8955,471.6
63.912,194.3
63.9223,123.4
63.9384,185.9
63.9559,335.1
63.9631,235.8
63.9868,19.5
63.993,17.1
63.9949,581.8
64.0016,808
64.0196,526.6
64.0295,188.7
64.0502,432.8
64.0778,646.5
64.0802,552.9
64.0915,352.5
64.1068,413.2
64.128,363.6
64.1358,117.4
64.1386,462.9
64.1403,333.9
64.1744,136.4
64.1759,19.6
64.1858,146.5
64.2058,354
64.2142,379.7
64.2201,725.2
64.2389,24.8
64.2399,680.6
64.2448,116.6
64.247,378.8
64.2522,439.4
64.2536,176.4
64.2538,221.5
64.2673,138.8
64.277,129.1
64.3216,576.8
64.3323,252.1
64.3435,137.8
64.3569,270.1
64.3642,18.7
64.3794,17.3
64.3798,592.3
64.3851,689.6
64.4057,446.6
64.4195,389.2
64.427,434.3
64.4397,228.9
64.4535,398
64.4647,146.6
64.5011,155.9
64.5298,256.4
64.5522,268
64.5593,367.6
64.603,179.1
64.6065,169.2
64.6391,16.2
64.6546,318.5
64.6553,652.9
64.6925,152
64.7035,683.7
64.7081,154.8
64.743,231.4
64.7876,142.3
64.8175,365.5
64.8545,128.5
64.855,703.8
64.8553,574
64.8753,18.7
64.8807,115.3
64.8912,515.6
64.9209,143.2
64.9268,249.7
64.9439,15.4
64.9545,246.6
64.9835,378.9
64.9915,333
64.9963,641.7
65.0007,19.7
65.0104,276.1
65.0166,151
65.0313,659
65.0386,269.7
65.0405,379.5
65.058,405.6
65.0616,246.2
65.0621,291.6
65.0646,309.1
65.0698,166.5
65.0781,423.6
65.0873,345.8
65.0926,573.5
65.1247,218.5
65.1289,166.4
65.1321,588.6
65.1564,203
65.1765,249.4
65.1881,300.6
65.1908,17.1
65.2028,258.4
65.2311,158.8
65.2338,121
65.2425,17.5
65.2451,18.3
65.2464,20.2
65.2582,162.2
65.2624,290.4
65.2667,295.9
65.2749,145
65.2768,17.3
65.283,338.8
65.2839,308.9
65.2905,306.4
65.2999,275.1
65.3014,231.5
65.3125,209.1
65.3257,17.1
65.3324,179.3
65.3441,215.6
65.3538,465.3
65.3689,17.7
65.3699,138.8
65.3921,694.9
65.3972,142
65.4035,768
65.4066,637.2
65.409,16.7
65.4207,586.5
65.4415,20.3
65.444,273.3
65.4689,17.6
65.5034,789.7
65.5168,236.1
65.5584,250.7
65.5786,379.9
65.5815,136
65.6135,17.2
65.6225,20.8
65.624,180.4
65.6341,501.6
65.6428,406.1
65.6544,21.2
65.676,527
65.6792,19.1
65.6866,364.8
65.698,156.9
65.7045,509.9
65.7139,329.4
65.727,19.6
65.7295,288.2
65.7549,501.7
65.7781,137.9
65.7879,121.3
65.7931,113.3
65.7991,304.2
65.7994,443
65.7995,474.8
65.8197,17.6
65.9018,183.7
65.9523,454.7
65.9638,280.3
65.9706,133.1
65.9791,616.4
65.9848,124.5
66.0042,167.3
66.0125,135.6
66.0203,581.4
66.0225,466.6
66.0251,490.8
66.0298,118.6
66.0384,18.9
66.0407,121.2
66.0483,205.4
66.0564,520.3
66.0778,255.6
66.0993,575.6
66.1038,512.6
66.1103,167.3
66.1148,18.4
66.1155,17.9
66.116,516.3
66.1183,254.2
66.1403,546.6
66.1676,250.3
66.18,127.8
66.2164,418.5
66.2374,680.3
66.2455,210.9
66.2667,484.3
66.2709,245.4
66.2785,156.3
66.2839,552.1
66.2859,142
66.2957,503.3
66.3323,128.3
66.357,525.5
66.3702,21.2
66.3706,404.1
66.3862,140
66.3952,144.4
66.4003,596.8
66.4196,324.5
66.4296,426.8
66.4475,691.2
66.4635,273.2
66.4724,338.8
66.4939,338.5
66.5063,201.3
66.5246,125.3
66.5259,18.8
66.5306,235
66.5321,511.7
66.541,141.6
66.544,567.7
66.5449,253
66.5468,320.7
66.6102,258.1
66.6225,159.3
66.632,116.2
66.6403,417.1
66.6442,603.4
66.6508,794.4
66.6641,225.3
66.6845,485
66.6858,16.1
66.6989,366.4
66.7014,129
66.7022,111.7
66.7028,596.2
66.7101,544.9
66.7145,638.4
66.7272,446.9
66.7411,533.3
66.7527,450.6
66.7529,454.4
66.7538,656
66.7628,526.4
66.7663,550.1
66.7691,407.6
66.7834,499.9
66.7975,150.2
66.7991,17.7
66.8012,189.3
66.8084,355.6
66.8255,379.7
66.8321,492.6
66.8421,21.3
66.8626,172
66.8758,424.8
66.8799,315.3
66.9005,21.3
66.9142,597.2
66.915,577.4
66.9203,105
66.9337,295.5
66.9394,209.2
66.9619,122.3
66.9691,17
66.9753,399.1
66.9783,389.5
67.009,365.5
67.0156,386.9
67.0164,157.5
67.0253,283
67.0408,379.3
67.0415,214
67.0507,106.5
67.0539,124.2
67.0752,271.7
67.0938,610.8
67.0945,125.7
67.1274,443
67.1388,430.1
67.1469,19.6
67.1672,301.3
67.1718,199.1
67.1914,561.1
67.1978,362.1
67.2016,17.8
67.2062,153.9
67.2202,565.3
67.2265,241.9
67.2341,18.1
67.2479,18
67.2495,406
67.2544,225.6
67.2832,279.3
67.3014,648.2
67.3052,151
67.3136,616.6
67.3235,325
67.3277,379.4
67.3289,242.4
67.3418,349
67.3552,166.6
67.3584,151.2
67.3648,21.2
67.3689,278
67.387,352.2
67.3876,620.4
67.3915,323.1
67.3963,147.8
67.4048,654.5
67.4348,140.7
67.4352,18.8
67.4439,254.4
67.4639,185.6
67.4743,25.5
67.5077,266.4
67.5165,18.7
67.5716,17.1
67.5739,532.1
67.5921,153.1
67.5965,17
67.6732,343.7
67.6762,364
67.7051,145.4
67.7064,193.2
67.7123,15.7
67.7202,20.5
67.7206,713.7
67.75,19.2
67.7566,222.2
67.7603,19.4
67.777,200.1
67.8003,278.4
67.8069,668.2
67.8168,188
67.8823,171.6
67.903,17.5
67.9058,222.8
67.9815,695.2
67.9852,140.9
67.9871,20.8
67.9923,567.4
67.996,148.1
67.9984,212.1
68.0123,150.8
68.0311,692
68.039,184
68.0432,234.5
68.0638,699.7
68.0922,202.6
68.119,121.2
68.1288,514.6
68.1356,386.6
68.1396,209.3
68.1404,196.5
68.1582,178.9
68.1627,23.4
68.1948,157.5
68.2025,123.9
68.2141,647.2
68.2171,199.9
68.2194,165.7
68.2466,684.3
68.2778,379.6
68.2864,119.3
68.3108,484.1
68.3261,19.1
68.3317,20.4
68.362,479.1
68.378,16.8
68.3848,401.7
68.3966,528.8
68.4121,469.8
68.4165,17.5
68.4173,19.3
68.4233,323
68.429,707.3
68.4479,282.2
68.4693,671.3
68.4771,197.3
68.491,550.1
68.5129,219.8
68.5236,555.8
68.5358,162.2
68.5399,257.3
68.5509,230.7
68.5525,17.5
68.563,497.8
68.5742,234.1
68.5973,21.7
68.6365,276.8
68.658,122
68.669,17.1
68.6779,141.4
68.6893,433.9
68.6956,569.4
68.7153,217.9
68.7215,512.2
68.7485,379.3
68.7559,154.9
68.7644,646.9
68.7793,469.3
68.7885,619.9
68.7961,678.6
68.7977,523.1
68.8381,376.8
68.8583,438
68.8678,650.2
68.8696,19.4
68.8719,313.6
68.8861,17.1
68.9013,445.6
68.9024,197.6
68.9111,130.6
68.9186,337.8
68.944,173.7
68.9497,128.1
68.9732,640.3
68.9886,506.2
69.0205,236.6
69.0583,177.9
69.0746,132
69.1578,304.6
69.1976,342.5
69.2165,300.4
69.2576,203.4
69.2727,692.7
69.2736,304.5
69.3025,217.5
69.3118,330
69.3167,519.4
69.3361,444.4
69.3606,139.3
69.3667,281.1
69.3668,282.7
69.3698,110.1
69.3774,223.9
69.4224,613.8
69.4381,20.2
69.4669,355.4
69.4808,578.5
69.4848,148.4
69.5074,16.4
69.5103,266.7
69.5372,740.7
69.5449,203.2
69.5569,261.4
69.5659,129.3
69.5725,141.4
69.6007,364.4
69.6049,509.3
69.6078,318.3
69.6224,224.9
69.6699,266.2
69.6805,213.1
69.6846,372.8
69.7181,232.7
69.8371,18.8
69.8421,520.3
69.8615,360.1
69.8671,178.5
69.9105,18.3
69.9316,179.7
69.9327,409.6
69.9345,148.5
69.9586,141.7
69.9654,621.5
69.9689,353.7
70.017,292.7
70.0326,368
70.0357,248.5
70.0393,447.4
70.043,172.8
70.0647,217
70.0676,639.1
70.0745,344.1
70.079,503.7
70.081,216.8
70.1128,392.7
70.12,20.1
70.1315,540.8
70.1506,481.9
70.1534,356.3
70.1838,497
70.1948,782.6
70.1989,344.3
70.2536,304
70.2613,785.4
70.27,476.4
70.2743,633.6
70.3007,208.6
70.3045,597.1
70.3212,468.8
70.3386,18.1
70.3639,177.1
70.3808,194.6
70.4819,144.1
70.5095,260.7
70.5271,352.4
70.534,248.1
70.5667,462.5
70.6324,513.6
70.6452,307.2
70.6693,234.9
70.6831,233
70.6886,191.8
70.7343,605.6
70.7394,580.5
70.7403,299.5
70.7477,104.5
70.7761,386.8
70.7866,185.6
70.7899,125.9
70.7967,229.9
70.8099,195.5
70.8123,671.8
70.816,16.8
70.8294,992.2
70.8307,139.5
70.8343,191.9
70.8384,173.6
70.8526,117.4
70.8537,457.2
70.8565,450.7
70.8966,19.8
70.9305,136.8
70.9325,24.8
70.9357,850.4
70.9428,19.7
70.9487,375
70.9828,123.2
71.0236,726.7
71.0342,202.2
71.0401,331.2
71.0471,500.8
71.0851,144.7
71.0869,547.1
71.1098,718.8
71.1195,239.5
71.1381,18.8
71.1572,266.8
71.1659,151.3
71.2022,153.5
71.2506,236.9
71.2673,22.7
71.2687,16.4
71.2772,429.5
71.279,18.5
71.2965,160.4
71.2975,19.5
71.3188,189.7
71.3318,17.7
71.343,413.1
71.3466,358.6
71.353,247.7
71.3681,317.2
71.3822,301.8
71.385,341.5
71.3894,119.6
71.3971,129.7
71.4096,705.9
71.4103,382.6
71.4273,191.9
71.4285,161
71.4331,337
71.441,390.4
71.4562,146.7
71.4672,773.7
71.4677,655.1
71.4901,21.4
71.4979,128.7
71.5093,408.5
71.5165,376.6
71.5188,230.1
71.5272,745.9
71.5609,19.1
71.5626,363.3
71.5678,317.9
71.6138,319.2
71.6319,113.4
71.6328,327.5
71.6543,113.9
71.6574,541.5
71.7026,18.1
71.7048,732.8
71.7201,413.5
71.7259,152.8
71.7325,208.8
71.7341,474.1
71.7343,493.5
71.7346,293.9
71.7728,287
71.8105,19
71.8178,176.1
71.8251,18.2
71.8258,164.4
71.8331,145.8
71.8349,366.4
71.839,498.1
71.8497,715
71.8576,16.2
71.8604,333.6
71.8866,217.9
71.8975,339.5
71.8998,182.2
71.928,154.7
71.9355,499.5
71.9894,18.3
72.0537,399.1
72.0804,588.2
72.0884,219.4
72.1023,523.9
72.1048,200.5
72.1053,242.2
72.1172,276.4
72.1414,499.4
72.1431,280.2
72.1593,235.1
72.1924,369.6
72.1971,369.7
72.2071,17.6
72.2107,19.5
72.2246,146.2
72.2253,188.2
72.227,23.3
72.2275,17.1
72.2293,395.1
72.2304,490.9
72.2315,790.9
72.2326,596.2
72.2337,1020
72.2348,1560.1
72.2354,639.2
72.2358,1461.1
72.2363,819.3
72.2372,1281.4
72.2378,1051.8
72.2383,593.8
72.2392,1569.2
72.2397,1281.7
72.2411,3573.6
72.2426,2942
72.2432,3715.4
72.244,3566.5
72.2441,3501.3
72.2448,5577.4
72.2459,3619
72.2468,2054.4
72.2484,2872.3
72.2496,3945.3
72.2501,2177
72.2506,1444.4
72.2511,1198.3
72.2523,1263.1
72.2535,550.8
72.254,157.1
72.2547,241.2
72.2658,293.7
72.2752,346.8
72.2805,555.6
72.2816,144.2
72.2928,174.3
72.2984,412.1
72.3137,712.2
72.317,18.1
72.3749,17.6
72.4148,278.2
72.4179,300.6
72.4188,511
72.4282,438.6
72.4397,16.5
72.4407,175.2
72.4463,753.2
72.4704,119
72.4738,302.1
72.482,18.2
72.5033,174
72.5183,345.1
72.5589,119.9
72.5655,598.5
72.6257,208.7
72.627,497
72.6589,560.9
72.6775,146.4
72.6916,336.3
72.692,571.1
72.7073,21.2
72.7742,129.2
72.7882,17.3
72.7967,345.4
72.804,109.3
72.8228,451.1
72.8263,19.6
72.8342,559.3
72.8476,612.2
72.8505,828.6
72.8787,151.3
72.9029,213.5
72.9122,547.8
72.9368,1353.2
72.938,665.6
72.9904,229
72.9956,363.5
72.9997,406.6
73.0122,301.5
73.0131,153.3
73.0211,20.6
73.0273,153.7
73.0387,367.7
73.0538,213.8
73.0585,141.2
73.0624,359.3
73.078,16.6
73.0891,484.2
73.0922,18.4
73.0944,155.3
73.1285,18.8
73.1416,244.5
73.1462,504.2
73.1627,179.2
73.1688,20.5
73.1865,133.1
73.1956,606.9
73.21,282.4
73.254,362.6
73.2559,567.9
73.2994,131.2
73.3072,406.3
73.3128,16.8
73.3214,376.5
73.3449,127.9
73.3648,17.2
73.3702,19.4
73.3824,18.3
73.3952,143.7
73.4162,127.4
73.4303,233.5
73.4614,364.9
73.4621,19.2
73.4785,506.7
73.5269,269.9
73.5747,120.6
73.5956,122
73.5976,858.9
73.6277,436.6
73.6489,504.8
73.6561,488.5
73.6685,646.5
73.7059,145.7
73.7064,20.1
73.7271,244.8
73.7341,482
73.7362,497.3
73.7655,129.9
73.7724,138.1
73.7761,141.6
73.7792,25.4
73.7831,138.1
73.794,349.1
73.809,559.4
73.8267,392.9
73.891,360.6
73.9061,344.6
73.9121,159.5
73.9275,507.4
73.9604,18.2
73.9693,476.9
73.9778,414.8
73.9807,345.7
74.0233,482
74.0334,444.7
74.0389,240.2
74.0916,209.8
74.106,358.2
74.1235,406.1
74.1357,114.2
74.1739,228.2
74.185,19
74.2025,17.4
74.2141,144.8
74.215,139.6
74.2162,197.1
74.2345,373
74.2414,575.7
74.2815,328.9
74.2888,378.5
74.3341,174.2
74.3354,16.4
74.3415,384.1
74.3654,233.1
74.3755,18.8
74.3784,498.6
74.4181,212.3
74.4219,201.2
74.4296,165.3
74.436,219.5
74.4524,105.9
74.4568,151.2
74.4683,365.9
74.4778,332.9
74.4962,369.2
74.5223,509.6
74.5391,18.6
74.5513,271.3
74.5591,459.2
74.5615,682.6
74.5675,435.7
74.5872,113.7
74.5966,363.8
74.6028,671.8
74.6118,18.6
74.614,217.6
74.6202,136.5
74.6504,17.4
74.6652,195.5
74.6678,363
74.7225,19.7
74.7379,17
74.7769,578.4
74.8154,294.6
74.835,108.5
74.8364,157.2
74.849,556.5
74.8705,151.2
74.8722,149.8
74.888,135.7
74.9161,717.3
74.9185,304.2
74.9227,346.2
74.9339,260.2
74.9512,180.1
74.9536,211.2
74.9915,190.7
74.9937,510.2
75.0412,423.3
75.05,849.1
75.0568,473.4
75.0622,501.4
75.0771,507.1
75.083,580.3
75.0902,646.9
75.0921,352.8
75.1471,381.8
75.1477,369.8
75.1514,189.8
75.1558,191.1
75.1872,465.8
75.311,257.7
75.3135,375.2
75.3655,421.5
75.3749,480.3
75.3812,137.8
75.3922,499.8
75.4029,534
75.4098,238
75.4125,530.3
75.4204,745.1
75.4299,473.9
75.451,143.5
75.4514,155.1
75.49,533.3
75.4941,298.6
75.5003,288.5
75.5512,253.5
75.5608,575.6
75.5657,199.5
75.5664,634.8
75.5756,523.6
75.5856,205
75.658,20.6
75.6778,17
75.6863,15.6
75.7176,296.6
75.7201,456.1
75.756,15
75.7689,120.5
75.7763,525.4
75.8005,171.6
75.8075,18.7
75.8099,164.8
75.849,236.7
75.8801,308.4
75.8825,254.4
75.8967,109
75.901,497.9
75.9162,18.6
75.9443,122.8
75.9624,525.9
75.9803,338.1
75.9888,663.3
75.9899,507.5
75.9989,153.9
76.0025,252.8
76.0503,116.8
76.0509,142.4
76.0664,303.5
76.0775,117.7
76.0824,213
76.1031,16.2
76.1134,16.1
76.1197,17.9
76.1331,235.4
76.1424,109.1
76.1817,502.8
76.1885,312.5
76.2114,17.9
76.2222,588.4
76.2276,258.7
76.2421,467.3
76.2528,17.5
76.2581,301.6
76.2616,624.6
76.2876,628
76.3143,822.6
76.3525,362.9
76.3556,215.2
76.4031,143.4
76.4341,331.8
76.4542,16.8
76.4576,288.3
76.4745,313.3
76.4905,543.2
76.4989,201.7
76.4996,136.1
76.5137,291.9
76.5206,16.5
76.5266,98.5
76.5325,151
76.5877,21.1
76.5973,740
76.6013,14.8
76.6059,644.7
76.6083,228
76.6161,552.3
76.6285,486
76.6297,16.8
76.6377,239.4
76.6437,613
76.6652,321.7
76.6686,369.6
76.7029,138.4
76.7375,18.3
76.7539,120.4
76.7657,172.7
76.8037,20.4
76.8098,164.3
76.8203,375.7
76.8436,17.1
76.8487,311.9
76.8718,561.6
76.8799,404.7
76.8843,481.5
76.9282,323.4
76.931,493.6
76.9603,186.9
76.9811,562.7
76.9933,770.5
76.9937,693.5
77.0007,656.8
77.0332,649.4
77.0352,452.2
77.0363,215.2
77.0382,93605.7
77.0763,218.7
77.1177,417.9
77.1406,317.8
77.1665,134.9
77.1841,129.4
77.1969,453.7
77.1995,230
77.2123,130.5
77.2348,339.1
77.2493,146.4
77.2592,275
77.2606,493.5
77.2861,380.7
77.2891,490.9
77.3022,290.1
77.3056,140.4
77.3271,508.2
77.3303,17
77.3442,119.2
77.3515,16.2
77.3762,142
77.39,18.9
77.4004,200.1
77.4085,194.8
77.4119,20
77.4295,567.2
77.4431,214.3
77.4768,130.5
77.4876,198.5
77.5074,130.8
77.5128,570.9
77.5547,19.4
77.5554,589.9
77.5824,130.9
77.6001,201.7
77.6346,321.2
77.6469,262.9
77.6478,19.3
77.6637,127.6
77.671,130.6
77.6725,152.9
77.716,155
77.7219,133.9
77.7463,613.6
77.7476,107.1
77.7659,95.5
77.7854,361.5
77.818,187.9
77.8185,16.9
77.8199,17.2
77.8209,242.1
77.8332,646.6
77.8581,362.4
77.8804,18.6
77.9015,260.8
77.9505,145.3
77.9771,282.2
77.9979,355.6
78.0031,200
78.0132,204.9
78.0162,114.1
78.0389,141.5
78.0416,2545.5
78.0438,161.8
78.0462,17.4
78.062,581.6
78.0757,231.4
78.0814,18.2
78.0993,137.8
78.1648,242.8
78.1926,145.4
78.196,17.6
78.2505,528.8
78.2624,416.7
78.2717,370.5
78.2787,17.8
78.2977,362.8
78.3315,400.7
78.3375,157
78.3415,144.8
78.3497,525.8
78.3713,117.7
78.3874,17.4
78.4276,374
78.4459,152.9
78.4549,277.8
78.4747,328.3
78.4819,193.5
78.4866,525.8
78.4901,334.5
78.4954,361.5
78.5488,489.3
78.5538,615.4
78.5711,529.9
78.5812,355.1
78.5835,323.3
78.6062,395.9
78.619,17.4
78.6536,550.4
78.6666,271.5
78.6799,277.3
78.683,664.1
78.7127,118.5
78.7243,677.3
78.7393,116.4
78.7604,131.4
78.7752,19.3
78.7872,522.3
78.8091,195.2
78.8152,208.2
78.8305,176
78.8357,127.3
78.8615,16.6
78.9264,577.4
78.9337,393.3
78.9425,371.4
78.9438,302.8
78.9496,329.7
78.9729,118.9
78.9782,22.4
78.9785,17.5
78.9942,151.3
78.9967,122.2
79.0459,127.6
79.048,644.1
79.0505,343.3
79.0539,1386.4
79.1031,225.9
79.1053,139.3
79.1245,202.9
79.1556,140
79.1755,156.8
79.2127,511.4
79.2179,232.6
79.22,348.1
79.235,592.9
79.2476,18.3
79.2995,188.3
79.3289,151.2
79.3605,19.6
79.3657,191.7
79.3883,293
79.3904,271
79.3969,365.8
79.4165,331.9
79.4844,375.8
79.5021,176.6
79.582,216.6
79.5914,650.1
79.5931,656.3
79.6612,281.2
79.6624,18.4
79.6933,570.4
79.6953,15.5
79.7082,18.7
79.7541,19.4
79.7601,114
79.7657,585.4
79.7918,850.7
79.7974,143.3
79.7983,189.1
79.8443,17.2
79.8486,636.6
79.8544,177.2
79.8661,642.1
79.9059,260.8
79.9158,247.3
79.9253,18.6
79.9417,459.4
79.9585,21.2
79.9798,230.3
79.9856,362.3
80.0074,491.2
80.0148,403.4
80.0435,143.5
80.0449,165.2
80.0572,24.3
80.0683,277.6
80.0886,482.9
80.1121,476.4
80.1338,443.9
80.1421,21.1
80.1458,99.9
80.1801,244.4
80.1862,231.5
80.187,528.2
80.2074,17.4
80.2236,200.5
80.2318,391.4
80.2901,146.9
80.301,19.1
80.3066,17
80.3267,156.7
80.3369,198.3
80.3529,343.5
80.3594,210.2
80.3657,313.3
80.4082,551.6
80.4246,172.3
80.434,19.1
80.4663,322.5
80.4994,20.4
80.5031,174.1
80.5089,224.2
80.5106,372.3
80.5219,266.6
80.5305,579.3
80.5368,525.8
80.5625,236.9
80.5785,141.9
80.5901,143.3
80.5954,138.1
80.6317,506.2
80.6511,18.1
80.6762,347.1
80.6776,248
80.7192,647
80.7807,111.5
80.7814,17.5
80.8571,17.6
80.8651,344.1
80.8691,234.5
80.8773,17.9
80.8787,326.3
80.8904,248.1
80.8998,357.2
80.9047,298.5
80.9089,721.5
80.9163,160.8
80.9327,301.6
80.9475,25348.7
80.9515,468.9
81.0074,196.2
81.03,340
81.0333,18
81.0549,16
81.0589,246.9
81.0696,773.8
81.0851,684.6
81.0881,177.6
81.1025,190.1
81.1268,204.8
81.1484,567.6
81.1496,191.9
81.1503,367.2
81.1521,450.2
81.1664,370.1
81.1705,193.3
81.1716,2054
81.1725,1942.3
81.1743,1432.1
81.1754,107
81.1766,420.8
81.1781,192.6
81.1982,173.5
81.207,18.3
81.2097,17.5
81.2112,213.7
81.2408,384.4
81.2443,345.4
81.2577,18.6
81.2587,233.9
81.2925,279.6
81.2955,163.2
81.3106,139.8
81.3141,170.1
81.3279,147.3
81.3507,470.5
81.3538,383.4
81.3689,158.6
81.3907,650.5
81.3949,237.2
81.399,258.8
81.4091,519.4
81.4219,601.2
81.4539,151.8
81.4688,177.3
81.5,550.6
81.5662,164.3
81.596,168.2
81.6147,410
81.6309,360.1
81.6345,332.4
81.6585,154.5
81.6873,136.3
81.7125,126.4
81.7297,538.5
81.7464,583.8
81.7468,620.5
81.7599,133.8
81.7702,488.3
81.7881,22.7
81.7927,213.2
81.7952,817.1
81.8078,725.4
81.8581,19.7
81.8619,233
81.8706,216.9
81.9049,681.9
81.9115,292
81.9347,702.4
81.9408,140.2
81.9742,239
82.0028,518.1
82.0115,448.2
82.0301,137.7
82.0452,161.8
82.0718,196.3
82.0765,573
82.0817,15.6
82.1076,19.9
82.1117,153.1
82.1235,127.4
82.1706,21.9
82.1722,16.4
82.1757,601.5
82.179,375.4
82.2017,219.5
82.2466,19
82.2966,292.4
82.3057,201
82.3125,345.8
82.3136,208.5
82.3185,553.7
82.3496,445.6
82.351,16.9
82.3779,137.1
82.4338,159.8
82.493,125.4
82.4995,17.9
82.5021,250.9
82.5222,233.4
82.5242,141.8
82.5549,163.7
82.5638,151.1
82.5687,402.6
82.5739,266.2
82.6646,153
82.6662,357.6
82.6681,150.1
82.6693,558.8
82.6721,366.4
82.6769,549.5
82.7034,475.4
82.708,526
82.7157,135
82.7227,491.1
82.7456,365.8
82.7466,516.9
82.7596,19.8
82.769,302.4
82.7735,437.9
82.8164,22.9
82.8392,193.6
82.8468,348.6
82.8492,713.4
82.8585,23.5
82.8719,145.8
82.9069,195.8
82.91,288.6
82.9117,335.6
82.9169,199.9
82.9446,7204.9
83.0036,309.1
83.0102,681.6
83.0213,807.6
83.027,169.8
83.0311,474.9
83.0602,136.5
83.0841,600.1
83.0849,228.5
83.1312,131.4
83.1544,20.3
83.1654,520.9
83.1714,669.3
83.1807,187.6
83.1883,21.8
83.2003,147.7
83.2398,274.3
83.2455,143.9
83.2527,341.6
83.261,419.7
83.2715,301.5
83.2733,313.7
83.2982,707.4
83.304,156.2
83.3238,222
83.3364,373.7
83.3655,170.8
83.3898,151.5
83.4066,641
83.4332,20.4
83.4605,265.9
83.4668,15.9
83.5149,401.3
83.5366,303.9
83.5443,148.3
83.5454,242.9
83.5516,17.9
83.5574,484.4
83.5618,364
83.5702,18
83.5777,612.1
83.5928,393.2
83.6021,117.7
83.6355,490.9
83.6803,402
83.6891,19.6
83.6994,231
83.7013,305.6
83.7262,17.2
83.7443,384.5
83.7464,194.3
83.748,236.1
83.7795,299.6
83.7814,607.8
83.797,553
83.8196,16.8
83.823,825.2
83.8449,167
83.9077,483.2
83.9273,125.6
83.9593,369.1
83.9805,319.3
83.9903,193.7
84.0441,1508.7
84.0537,331.4
84.0595,307.5
84.0787,328.8
84.0798,21.2
84.088,616.9
84.1237,385.9
84.1291,774.7
84.1533,15.8
84.1677,129.4
84.1801,643.3
84.2898,705.5
84.3103,16.2
84.3146,186.4
84.336,172.6
84.3374,351.2
84.3462,17.1
84.4274,428.2
84.4343,185.4
84.4396,201.1
84.4493,171.6
84.4518,146.1
84.4526,19.5
84.4592,163
84.4743,381.9
84.4899,264.1
84.5082,18.6
84.5467,647
84.5799,21
84.5944,218
84.6688,390.8
84.6795,17.5
84.6804,126.2
84.684,129.8
84.7271,269.2
84.728,502.9
84.7402,396
84.7545,330
84.7571,17.3
84.7671,548.5
84.7866,234.1
84.7897,231.4
84.7979,19.2
84.8081,396.9
84.8181,422.1
84.8214,691.1
84.8302,227.2
84.8485,618.5
84.8648,400.5
84.8737,560.5
84.8956,549
84.9078,23
84.9104,184.7
84.9206,803
84.9244,745.6
84.9286,123.8
84.9532,154.8
84.9594,15107.7
84.9907,502
84.9959,406.5
84.9973,120.3
85.0033,544.7
85.0055,300
85.0162,134
85.0189,18.6
85.0281,1675
85.0502,423.7
85.1014,16.6
85.1108,593.1
85.1147,135.5
85.2081,175
85.2349,340.6
85.2356,1106.6
85.2616,257.9
85.2818,340.9
85.3035,15.8
85.3516,324.9
85.3863,200.1
85.3969,530.4
85.4016,20.3
85.4077,183.1
85.4152,337.5
85.4364,673.8
85.4469,704.7
85.4561,770.5
85.4628,403.5
85.4851,183.9
85.5246,362.7
85.5359,284.5
85.5421,202.8
85.5711,517.5
85.5812,390.6
85.5951,115.4
85.6354,20.5
85.6543,180.2
85.6946,224.8
85.7045,20
85.7203,457.1
85.7276,279.7
85.7348,138.8
85.7896,120
85.8056,226
85.8419,555.1
85.8688,601.3
85.8834,766.9
85.8868,156.7
85.9747,136.6
85.9831,301.4
86.0179,484.2
86.02,331.1
86.057,18.1
86.0598,15465.5
86.0946,233.5
86.0961,130318.7
86.0995,369.6
86.1002,169
86.1044,661.8
86.1289,348.1
86.1434,506.8
86.144,17.1
86.1456,654.2
86.1919,258.5
86.2028,18.9
86.2428,17.3
86.2614,546
86.2881,21.5
86.3031,133.6
86.3131,504.7
86.3252,650.6
86.3657,444.8
86.437,142.1
86.4863,542.6
86.5274,127
86.5368,352.5
86.5402,194
86.5807,1014.1
86.5816,16
86.584,209
86.5844,248.9
86.5948,24.3
86.6069,463.3
86.6075,29.7
86.6214,619.5
86.6259,301.5
86.6544,390.1
86.6772,17.9
86.6801,531.6
86.6834,344
86.7156,219.7
86.7333,145.1
86.7417,651.3
86.7436,591.1
86.752,22.1
86.7562,133.2
86.7618,313.5
86.7923,131.6
86.8614,400.5
86.9161,267.8
86.9454,167.2
86.9525,103.1
86.9819,509.9
87.0039,23
87.0054,411.5
87.0365,291.9
87.0421,181.6
87.0967,247.6
87.0995,1928.5
87.1179,126.3
87.1409,374.7
87.1923,692.8
87.2146,599.9
87.2239,341.9
87.2793,505.3
87.2929,175
87.3341,222.2
87.368,704.6
87.3773,193
87.3938,351.5
87.4662,347.1
87.4711,185.7
87.5393,332
87.5431,262.1
87.5611,553.9
87.5658,234.9
87.5704,158
87.6035,226.6
87.6249,417
87.6603,450.6
87.6631,181
87.7122,684.9
87.7237,19.1
87.7401,156.7
87.7516,534.4
87.7671,132.7
87.8029,297.7
87.8067,661.3
87.8302,128.3
87.855,150.1
87.8681,212.6
87.8935,533.7
87.9284,404.5
87.9461,400.5
87.9546,23.6
87.9769,109.4
88.039,1687.1
88.0536,16
88.0578,17.5
88.0682,335.3
88.0732,19.2
88.0754,19.6
88.1242,18.2
88.1377,19.5
88.1418,18
88.1473,810.2
88.1511,603.3
88.1641,627
88.205,300.9
88.209,443.4
88.2109,109.2
88.2338,621.8
88.2426,620.2
88.2462,168.9
88.2825,672.6
88.3486,135.7
88.4254,787.9
88.4508,658.6
88.4677,685.1
88.4757,18.8
88.4976,247.6
88.5154,185.1
88.5253,111.3
88.5453,373.3
88.5463,577.6
88.5492,16
88.5628,540.6
88.5694,450.6
88.6101,251.5
88.6354,325.3
88.6671,689.7
88.7237,258.3
88.7365,138.3
88.7509,437.8
88.7597,343.7
88.7628,18.3
88.771,126.2
88.7748,368.7
88.7903,384.1
88.8112,310.9
88.8388,683.7
88.8462,153.5
88.871,338.8
88.8725,17.2
88.8794,121.6
88.8815,300
88.8902,217.4
88.9229,272.4
88.9459,384.6
88.9521,97.8
88.9528,19.8
88.9575,370.3
88.9591,217
88.9892,362.6
88.9963,17.3
89.0045,211.2
89.0228,256.5
89.0358,419.7
89.0366,649.6
89.0705,16.6
89.0799,215.7
89.1288,312.1
89.136,291.8
89.1382,358.3
89.1455,473.8
89.1478,149.8
89.1789,154.5
89.1893,744.7
89.2199,535.9
89.2225,126.8
89.2357,124
89.2483,204.7
89.279,649.1
89.2798,231.4
89.2903,546.9
89.2948,148.7
89.3262,206.2
89.3318,368.2
89.3479,159
89.3531,409.8
89.3597,170.5
89.4215,310.8
89.4577,305.7
89.4648,365
89.4765,707.5
89.5127,137.8
89.534,499.8
89.5807,339.5
89.5849,588.9
89.5885,311.1
89.6098,335.3
89.6304,151.7
89.6386,160.9
89.7171,147.7
89.7379,467.6
89.7853,596.3
89.7912,250.2
89.7946,355.2
89.8236,374.8
89.8946,164.9
89.9,554.8
89.9617,142.8
89.9634,536.2
89.9649,406.7
90.0127,502.2
90.0283,24.7
90.0316,627.7
90.0332,751.4
90.044,386.9
90.0744,777.4
90.0867,571.7
90.1008,17.2
90.1199,20.4
90.1216,17.4
90.1411,139.7
90.1458,339.2
90.1566,19
90.1939,135
90.1987,163.6
90.204,158.9
90.2266,570.6
90.2413,101.4
90.2825,348.4
90.2953,127.7
90.2965,221.8
90.3062,564.4
90.328,214.8
90.3401,16.6
90.3427,657.9
90.3687,137.9
90.3974,660.8
90.4067,285.1
90.4148,17.2
90.4601,349.5
90.4677,572.6
90.4737,259
90.4744,132
90.4923,18.8
90.5046,428.6
90.5379,460.7
90.5432,306
90.5501,515.9
90.5575,554.2
90.5586,217.9
90.5612,184.4
90.591,612
90.6067,122.7
90.6178,308.4
90.6233,210.7
90.6272,356.5
90.6647,400.6
90.6713,197.9
90.679,475.7
90.6848,18.7
90.7119,189.3
90.7329,391.9
90.7452,381.6
90.7465,140.9
90.7518,243.6
90.789,532.5
90.7995,189.5
90.8291,192.9
90.8827,417.7
90.8843,274
90.903,140.7
90.9162,20.9
90.9474,4355.8
90.9586,409.6
90.9764,6364.5
90.9968,287.1
91.0104,702.8
91.012,577.9
91.0362,322.8
91.054,1901.1
91.0983,238.5
91.1217,214.8
91.1259,183
91.1346,664.3
91.1493,313.9
91.1752,488.6
91.1793,357.2
91.1878,246.1
91.2142,732.7
91.2273,372.5
91.2398,163.9
91.249,200.3
91.2556,114.6
91.2968,622.9
91.3235,124.6
91.4091,18.9
91.4224,347.8
91.4362,653.8
91.4635,260.9
91.4975,337.7
91.5006,220.1
91.5436,393.8
91.5915,352.2
91.6095,576
91.613,510.9
91.6264,244.9
91.6509,351
91.669,472.5
91.6707,704.8
91.6954,142.2
91.7299,354
91.7438,336.7
91.7654,517.3
91.7859,380.2
91.798,165.2
91.809,322.7
91.8282,357.8
91.832,640.6
91.8366,313.3
91.8375,18.4
91.85,155.7
91.8568,439.9
91.8715,18.6
91.8787,140.4
91.8864,157.5
91.9301,393.9
91.9508,132.3
91.9583,182.7
91.9606,564.5
91.9906,370
92.0062,124.1
92.0167,170.1
92.0374,555.4
92.0492,259.5
92.1333,428.1
92.1399,425
92.3307,138.6
92.3378,195.9
92.3466,425.7
92.359,154.8
92.4177,18.1
92.476,506.9
92.5157,189.2
92.5425,420.8
92.5454,712.4
92.5627,331.7
92.5763,167.1
92.595,481.5
92.6026,353.7
92.6044,145.5
92.6086,255.8
92.6211,801.5
92.6402,417.3
92.6553,763.6
92.6699,653.9
92.6749,799.4
92.6806,354.6
92.6942,148.2
92.7087,287.1
92.7101,175.1
92.7398,214.5
92.7505,639
92.7525,490.5
92.7613,155.3
92.7847,742.5
92.7921,122.6
92.7953,218.7
92.8013,529.2
92.859,18.4
92.8599,365.8
92.8811,528.3
92.8897,242.7
92.9,24.5
92.9126,128.1
92.9226,354.5
92.9302,520
92.9462,216.9
92.9836,531.2
93.0124,321.9
93.0179,186.4
93.0332,36.1
93.0571,19.1
93.0611,619.8
93.0697,32.9
93.0967,18.6
93.1351,18.4
93.1666,249.7
93.1802,21.3
93.1956,359.3
93.2119,849.7
93.2745,535.5
93.2771,138.8
93.3028,358.8
93.3039,16.9
93.308,606
93.3112,17.8
93.3198,201.9
93.3393,343.1
93.3566,313.1
93.3845,367.4
93.3918,191.8
93.402,170.7
93.4123,20.5
93.4435,146.8
93.4487,125.2
93.468,650
93.4854,169.3
93.5028,459.3
93.5199,456.3
93.5604,159
93.5833,19.1
93.6204,17.6
93.6302,16.9
93.6424,129.6
93.6478,666.7
93.6503,621.6
93.6656,699.7
93.672,16.6
93.6749,633.7
93.7102,643.3
93.7567,372.5
93.8104,381.6
93.8169,620.8
93.8358,340.5
93.862,128.8
93.8962,1098.1
93.897,16.3
93.9047,253.9
93.9273,116.9
93.9423,542.6
93.988,302.2
94.002,376.9
94.0069,457.2
94.0411,45401.7
94.0743,129.6
94.0767,573.3
94.1168,599.7
94.152,372.8
94.191,202.7
94.2049,182.8
94.2334,699.6
94.2536,17.9
94.2562,128.7
94.2643,632.8
94.2657,379.1
94.2863,339.1
94.2892,556.3
94.3086,237.2
94.3463,679
94.3597,222.1
94.3636,298.4
94.3946,404.2
94.4554,139
94.4567,572.6
94.4743,539.5
94.5151,415.1
94.5551,714.9
94.5651,380.5
94.5681,305.8
94.5756,127.7
94.5871,247.2
94.6027,425.1
94.618,168.1
94.6324,622
94.6361,309.3
94.649,301.6
94.6761,243.7
94.6905,493.4
94.6926,418.1
94.708,386
94.7205,127.6
94.7208,128.2
94.7303,202.2
94.7583,436.5
94.7694,278.1
94.7831,17.2
94.7862,17
94.7948,16.5
94.8452,193.1
94.9219,620.4
94.9286,237.1
94.9621,165.3
94.9987,624.4
95.0087,22.3
95.0355,29.4
95.0444,733.6
95.0468,103.7
95.0471,119.7
95.0489,338698.6
95.0506,199.4
95.0513,76.6
95.0522,21.5
95.0527,23.1
95.0532,21.9
95.0624,21.7
95.0755,142.7
95.0854,531.7
95.0892,28.7
95.1039,317.3
95.1117,168.5
95.1429,236.7
95.1693,165
95.1731,409.6
95.1792,510.8
95.2253,16.6
95.2366,262.3
95.3331,271.6
95.385,521.6
95.3938,242.4
95.3967,515.3
95.4026,378.5
95.4073,236.5
95.417,183.5
95.4234,696.4
95.4346,579.3
95.4382,317.6
95.4808,143.7
95.4991,639.3
95.513,16.9
95.5146,528.1
95.5199,21.1
95.5315,18.8
95.5351,159.2
95.5831,370.5
95.6506,250
95.6664,501
95.6763,337.3
95.6814,127.3
95.6978,337.2
95.7061,398.1
95.7242,387.3
95.7291,155.6
95.7319,168.8
95.7455,19.4
95.7938,330.5
95.8418,734.5
95.8659,146.6
95.8786,147
95.8797,515.4
95.8823,559.9
95.9683,374
95.9893,154.5
96.0047,271
96.0206,567.9
96.0451,378.6
96.0511,126.9
96.0522,15755.9
96.0783,701.8
96.1143,103.8
96.1407,411.9
96.1632,391
96.1723,18.3
96.18,136.7
96.2056,209
96.2086,483.8
96.226,1075.1
96.2375,226.6
96.2674,492.9
96.2871,361.4
96.334,366.1
96.351,381.5
96.366,220.8
96.3909,124
96.3926,484.7
96.3961,17.1
96.4303,424
96.4337,581.9
96.4499,19.4
96.4689,623.5
96.4792,142.2
96.4963,142.9
96.5114,220
96.5214,411
96.5283,333.8
96.5302,192.3
96.5387,383.9
96.5589,23.4
96.5667,329.6
96.5685,117
96.5691,135.7
96.5838,570.9
96.6144,20.6
96.6205,17.9
96.6477,227.8
96.7183,170.9
96.7483,668.5
96.7599,135.7
96.7925,165.5
96.7969,374.1
96.8914,588.1
96.9165,150.8
96.9215,124736.9
96.9374,130.3
96.9551,225.9
96.968,190.8
96.974,500.4
96.9941,397.8
97.0074,104.2
97.0104,36.3
97.0234,18.5
97.0531,44.1
97.0557,41.7
97.0758,24.4
97.1009,36.7
97.1578,559.6
97.1677,374.3
97.1726,265.7
97.178,409.5
97.2445,173.8
97.2572,163.2
97.2619,132.3
97.2683,654.2
97.2914,615.4
97.3429,372.3
97.3698,142
97.4227,263.7
97.4632,146.6
97.4666,24.6
97.5246,650.1
97.5476,143.5
97.5527,298.2
97.5556,335.7
97.5909,540
97.6247,149.4
97.655,117.1
97.7517,360.3
97.7792,116.1
97.8,291.1
97.8086,180.1
97.8117,353.4
97.8196,151.9
97.8241,436
97.8894,346.6
97.894,19.6
97.9201,579.1
97.9502,301.9
97.9548,291.1
97.9666,682.7
97.9897,243.9
98.0135,162.4
98.0317,152.2
98.0341,1085.6
98.0415,363.6
98.0433,259.3
98.0572,151.4
98.0614,118.8
98.0655,23.5
98.0747,18.8
98.0824,581.5
98.0869,763.2
98.1386,16.5
98.2167,604.8
98.2348,369.6
98.2499,202.7
98.2612,176.3
98.2746,173.2
98.2936,128.8
98.3452,297.1
98.3703,479.5
98.3725,677.3
98.4065,636.1
98.4154,485.8
98.4228,147
98.4279,165.4
98.4922,543.1
98.5179,192.7
98.5627,569.6
98.5645,484.3
98.5799,283.1
98.618,182.1
98.6282,368.4
98.6408,21.1
98.6709,321.7
98.7163,151.1
98.7243,20.6
98.739,156.6
98.7724,250.1
98.8158,120.6
98.8283,314.3
98.8368,657.6
98.8404,414.9
98.8426,583.4
98.9075,532.5
98.9186,36322.8
98.9196,3304.2
98.9224,235.1
98.9558,520.4
98.9614,17.8
98.9751,10059.9
98.9831,449.6
98.9838,188.6
99.0248,109.2
99.0491,935
99.053,185.3
99.0661,643.6
99.0823,521.1
99.0861,653.7
99.114,124.1
99.122,209.9
99.2001,591.1
99.2185,246
99.2538,623.3
99.2718,212.6
99.3157,341.5
99.3161,284.4
99.3242,149.8
99.3421,367.8
99.3451,338.3
99.3526,267.3
99.355,477.6
99.3787,216.9
99.4065,302.9
99.4339,18.3
99.4496,539.5
99.4577,16
99.4684,152.3
99.5018,381.5
99.5066,256
99.5112,169
99.5482,252.8
99.5505,308.5
99.5756,625
99.5873,138.6
99.5898,21.1
99.7135,18.6
99.7353,142.7
99.7498,19.8
99.7652,803.4
99.8009,20.8
99.8096,654.3
99.9079,539.7
99.9144,136
99.9592,132.2
100.0014,21.6
100.0034,427.1
100.0084,169.1
100.0134,337.2
100.0301,247.3
100.0531,118.5
100.0583,682.4
100.0754,23.3
100.0864,134.6
100.1053,270.4
100.1095,103.4
100.1379,816.8
100.209,19.8
100.2454,137.1
100.3071,351.5
100.3388,451.1
100.3676,472.3
100.4008,613.6
100.4611,23.4
100.466,199.8
100.5045,372.7
100.509,534.3
100.534,572.7
100.5569,271.5
100.5939,680.6
100.6139,403.8
100.6273,679.6
100.6404,668.9
100.6464,346.9
100.6656,295.3
100.6682,276.7
100.6717,17
100.7365,160.4
100.776,583.8
100.7774,136.8
100.7904,148.1
100.8162,19.1
100.8452,18.4
100.8596,16.9
100.871,370.2
100.8979,607
100.9,458.9
100.9049,379.7
100.9167,499.2
100.9254,155.8
100.9505,628.6
101.0191,307.1
101.0468,1319
101.0498,351.6
101.0663,795.4
101.0675,140.2
101.0707,2437.4
101.0795,194.3
101.0909,717
101.1038,374.8
101.1527,17.7
101.1623,141.9
101.1664,329.5
101.1821,457.9
101.1849,1022.7
101.189,579.6
101.2278,360.4
101.2346,237.2
101.2401,719.3
101.3522,156
101.3784,751.6
101.4611,1002
101.4668,17.9
101.5059,322
101.5241,138.5
101.5347,16
101.5472,18
101.5962,220.4
101.6477,134.5
101.6648,18.7
101.6909,191.6
101.7221,16.9
101.7909,18.9
101.814,147.8
101.8158,468.1
101.8257,368.7
101.8809,17.6
101.89,351.9
101.8979,221.7
101.9323,429.5
101.9374,22.3
101.9431,525.1
101.9486,384.6
101.9634,373.3
101.9799,376
101.982,18.4
102.0056,166.1
102.0251,20.3
102.0491,187.4
102.0547,2742
102.0605,207.1
102.0731,149
102.1043,392.6
102.1448,17.9
102.1614,208.5
102.1824,708.3
102.2244,586.2
102.2558,102.6
102.3013,161.6
102.3427,104.8
102.3783,142.5
102.385,270.3
102.442,335.6
102.4518,306.4
102.4611,182.8
102.4853,130.1
102.5372,447.9
102.5817,368.1
102.5864,17.8
102.614,277.4
102.6162,649.9
102.6781,563.3
102.679,17.3
102.7141,153
102.7726,20.2
102.7953,617.9
102.8006,398
102.8159,336.9
102.8229,726.1
102.8449,132.2
102.8483,21.8
102.8574,592.5
102.9482,583.2
102.9491,315.9
102.9514,593.7
102.9562,237.3
102.9592,176.4
102.9678,153.4
102.9698,534.7
103.0259,364.5
103.055,419.2
103.0645,411.2
103.0841,295.4
103.2023,16.5
103.2552,381.1
103.3288,332.4
103.38,17.7
103.3934,227.1
103.4407,19.2
103.4655,18.5
103.47,144.8
103.5045,269.6
103.5496,589.4
103.5635,155.8
103.5726,18.8
103.6001,225.8
103.6423,508.9
103.6481,211.5
103.6495,156.8
103.657,549.1
103.678,18.2
103.7071,565.7
103.7366,770.2
103.8227,483.3
103.8303,109.7
103.8364,403.5
103.9152,569.1
103.9248,340.7
103.9671,216.3
103.9681,264.5
103.9791,367.4
104.004,630.4
104.0355,177.7
104.0453,171.6
104.0933,106.9
104.1054,462.5
104.1068,541344.3
104.1104,202.9
104.1113,378.4
104.152,144
104.1545,725.2
104.1557,124.6
104.1675,281.6
104.1794,366.6
104.189,16.1
104.2072,22.9
104.2217,253.4
104.2312,136.7
104.2325,199.6
104.2606,735.1
104.2756,19.3
104.2995,610.1
104.3165,20.8
104.3235,186.1
104.3279,115.9
104.3688,135
104.378,20
104.3871,573.9
104.3896,343.2
104.4269,161.5
104.4765,570.2
104.5432,466.2
104.5776,180.5
104.634,544.7
104.6382,21.8
104.6416,553.8
104.6433,19.8
104.6718,243.2
104.6818,18.6
104.6971,315.4
104.7164,145
104.803,342.9
104.85,218.9
104.8634,699.2
104.8657,19.1
104.8691,646.6
104.8974,276.6
104.9076,19.5
104.9336,685.4
104.94,18.5
104.9479,209.3
104.9631,5150.7
104.992,721.2
105.0217,891.6
105.0334,159.3
105.0428,202.9
105.0445,29070.1
105.0697,46.9
105.1032,161.1
105.1101,21902.8
105.1272,676
105.128,235.8
105.1387,384.8
105.1423,719.7
105.1773,350.5
105.2067,656.9
105.2223,154.2
105.2495,480.9
105.3333,100.5
105.3366,18.1
105.3551,133.5
105.3934,213.6
105.4906,515.7
105.4921,662.5
105.5055,553
105.5103,607.5
105.5613,727.6
105.6117,541.3
105.614,181.9
105.6465,183.2
105.6473,152.9
105.7028,632.3
105.7065,24.5
105.7223,553.5
105.7592,151.1
105.7765,586.2
105.792,387.5
105.7958,127
105.8161,237.6
105.8231,724.1
105.8503,176.7
105.9047,187.2
105.9177,307.9
105.931,163.9
105.9376,352.9
105.9817,348.6
106.0009,18.1
106.0176,127.4
106.0479,411.9
106.0556,153.3
106.0628,122.1
106.0647,564
106.0747,19.1
106.091,268.7
106.0931,289.2
106.1084,139.3
106.1199,220.5
106.1255,151
106.1272,464.9
106.1524,552.8
106.1608,659.2
106.1641,667.5
106.2226,409.4
106.2543,712.5
106.2984,366.5
106.3146,134.6
106.3489,135
106.3905,702.7
106.4035,364.5
106.4077,238.2
106.4142,229.8
106.4167,185.9
106.5029,250.4
106.524,604.2
106.5471,381.8
106.5656,711.2
106.5817,694.3
106.6182,17.5
106.6195,329.8
106.621,22.1
106.6234,151.7
106.6445,662.4
106.66,262.7
106.6661,662.4
106.7215,114.7
106.8138,545
106.8218,196.5
106.8709,16.5
106.902,425.1
106.9233,164.2
106.9303,189.1
106.9433,20.4
106.9493,755.1
106.9503,4463.7
106.9546,125.6
106.9618,108.7
106.9635,91.6
107.0281,29.5
107.0489,430.8
107.0854,56.8
107.1366,184.7
107.161,309.4
107.1692,144.2
107.1837,690.9
107.2006,188.8
107.2102,17.8
107.2464,224.3
107.2528,124.1
107.3368,21
107.3416,137.9
107.354,178.6
107.3676,117.5
107.3748,753.7
107.3754,705
107.3882,20.1
107.4061,589.3
107.4775,152.3
107.511,496.7
107.5123,312.5
107.5398,708.8
107.5723,366.3
107.6147,138.3
107.6569,17.1
107.6624,328.8
107.6925,689.2
107.7008,276.8
107.7465,425
107.7573,17.6
107.7664,513.4
107.8013,121.1
107.8347,19.9
107.8645,540.7
107.8822,979.2
107.8925,357.1
107.9108,655.8
107.9362,518.5
107.946,510.5
107.9714,19.5
107.9849,261.3
108.0424,156.8
108.0481,375
108.0567,30
108.1478,21.8
108.158,699.3
108.1715,287.7
108.1742,357.8
108.1782,20.2
108.2351,280.9
108.3085,515.8
108.3135,481.4
108.3778,283.2
108.4268,711.9
108.4303,193.9
108.4403,317.1
108.4669,302
108.4724,339.6
108.4874,207.4
108.5491,244.9
108.5539,682.3
108.6115,268.4
108.6402,116.1
108.6424,466.7
108.6515,680.6
108.6917,487.5
108.7566,583.1
108.7845,163
108.785,186.1
108.7859,127.7
108.7967,259.9
108.818,19.5
108.9238,291.5
108.9425,168
108.9519,473.1
108.9581,129.8
108.9833,410.2
109.0281,180.4
109.0463,221.4
109.0646,45225.8
109.0663,27.6
109.0731,17
109.0956,168.4
109.101,610.7
109.1281,335.1
109.1325,231.8
109.1463,281.8
109.1586,323.1
109.2465,16.9
109.3211,219.8
109.4052,362.2
109.4071,323
109.4261,251.1
109.4283,753.7
109.4643,717.6
109.4708,181
109.4913,147.4
109.4991,354.5
109.5031,156.5
109.5078,17.8
109.5089,431.9
109.5266,17.7
109.5345,478
109.5398,122.3
109.5758,18.8
109.5988,16.3
109.6232,322.5
109.6403,186.5
109.6502,212.1
109.6517,110.4
109.6677,153.5
109.6697,122.6
109.6744,19.2
109.7529,18.4
109.7666,121.3
109.7813,144.7
109.8092,155.8
109.8246,601.3
109.8493,130.3
109.8763,475.1
109.8855,281.1
109.891,159.8
109.9152,382.8
109.9173,645.1
109.929,508.8
109.9848,406.1
110.0165,706.3
110.0211,134.8
110.0679,1198.4
110.0711,2011.6
110.105,345.5
110.1334,449.1
110.1457,313.9
110.147,152.1
110.1888,285.2
110.2208,685.7
110.2628,218.6
110.2695,105.7
110.285,342.3
110.2976,645.1
110.3709,337.3
110.4096,152.9
110.4212,547.6
110.4352,18.4
110.4433,697.7
110.4551,548.7
110.4976,611.5
110.5036,251.7
110.5076,143
110.525,243.2
110.5276,550.2
110.5485,370.7
110.5609,479.1
110.6865,511.7
110.7128,117.7
110.729,439.7
110.7748,135.9
110.802,273.4
110.8037,551.8
110.8211,356.4
110.8678,259.7
110.8718,501
110.9573,18.5
110.9714,597.2
110.9906,696.8
111.0116,130.8
111.023,177.5
111.0363,201.1
111.0439,239.4
111.0713,22.6
111.0798,17.2
111.0952,355.1
111.0992,429.5
111.1076,651.3
111.2245,675.2
111.2952,264
111.306,794.7
111.3333,373.8
111.3996,503.6
111.4517,166
111.4706,18.1
111.6068,268.6
111.6154,602.2
111.6618,372.6
111.7032,332
111.7451,154
111.7699,260.9
111.7711,197.4
111.7948,172.3
111.8079,632
111.8427,123.5
111.8501,589.2
111.9255,330
111.9381,181
111.9439,293.6
111.9531,140.9
111.959,722.9
111.9699,17
111.9879,408.7
112.0138,274.4
112.0503,521.7
112.0567,540.7
112.0586,18.3
112.0705,174.6
112.0992,35.2
112.126,220.2
112.14,791.2
112.1547,346.7
112.2085,151.1
112.2265,19.2
112.2641,155.6
112.2874,193.9
112.2961,514.9
112.3404,585.5
112.3549,308.2
112.3568,503.5
112.3659,577.5
112.3712,160.6
112.3717,163.7
112.4395,420.3
112.4523,690.9
112.4917,538.1
112.5324,18
112.5574,594.6
112.6175,148.3
112.7208,570.2
112.771,491.8
112.8098,611.9
112.8124,528.9
112.824,146.1
112.8465,20.5
112.857,164.5
112.8846,558.4
112.8955,518885.7
112.9231,141.6
112.959,432.4
112.9652,150.2
112.9688,233.9
113.0657,756.3
113.076,122.6
113.0798,515
113.1072,127.6
113.1164,263.6
113.1406,197.1
113.227,17.9
113.2565,471.7
113.2752,245.5
113.3037,134.3
113.3276,617.3
113.3449,301.8
113.3592,159.1
113.3662,20.2
113.375,514.3
113.3897,322
113.3971,706.8
113.4416,290.2
113.4468,237.2
113.4721,18.2
113.4965,19.2
113.5098,209.5
113.5142,328.3
113.5216,148.8
113.559,283.7
113.566,143.2
113.6358,677.9
113.6817,624.6
113.6847,229.1
113.6884,605.3
113.7028,156.1
113.7097,112.5
113.7124,393.3
113.8002,147.5
113.8084,338.1
113.8676,19.3
113.8816,385.4
113.957,722.9
113.9634,43.8
113.9749,127.8
113.9838,22.9
113.9849,586.6
114.012,105.4
114.0157,406.2
114.0208,328.3
114.0518,307.6
114.0547,23933
114.066,250.7
114.0827,215.7
114.0865,145.6
114.0952,20.3
114.1281,126.7
114.1375,153.4
114.1804,21.3
114.1816,168.8
114.2076,155.5
114.2162,530.2
114.2494,17.2
114.2525,651.4
114.2891,165.2
114.3244,403.9
114.344,539.7
114.3799,766.6
114.386,261.8
114.497,532
114.5147,145
114.528,367.3
114.5332,249.3
114.5477,213.4
114.5574,202.5
114.5802,570.2
114.6334,147.5
114.6469,528.4
114.6665,16.9
114.6826,345.9
114.7261,323.9
114.7305,197.5
114.8197,142.6
114.8212,280.7
114.8926,169563.3
114.948,550.7
114.9792,18.6
115.0088,165.2
115.0398,581.3
115.0469,663.4
115.0578,107.3
115.0864,584
115.0895,313.4
115.1099,383.8
115.1139,348.2
115.124,359.6
115.2343,19.6
115.2871,18.2
115.3258,159.8
115.3329,517.6
115.3466,20.4
115.3676,686.5
115.3713,224.8
115.3777,265.4
115.3947,192.9
115.4097,251.4
115.4314,146.7
115.4474,155.6
115.4558,566
115.4973,737.4
115.5477,546.7
115.5607,619.3
115.5682,120.1
115.5939,23.6
115.6127,556.3
115.6361,532.2
115.6406,148
115.6503,345.7
115.7579,391.9
115.7609,480.8
115.7998,536.8
115.8396,318.5
115.8566,621.6
115.9248,331.9
115.9482,24.3
115.9594,481.1
115.9791,844.6
115.9868,20.1
115.9897,21.4
116.001,21.2
116.0093,359.1
116.0227,279.1
116.0276,166.4
116.0441,386.1
116.0548,737.1
116.0704,5951.7
116.0947,225.7
116.1318,22.7
116.1605,669.6
116.1662,254.2
116.2263,368.7
116.2826,472.9
116.3385,17.2
116.3661,18.9
116.404,124.3
116.4119,505.9
116.4425,175.6
116.4827,17.3
116.5055,223.7
116.6172,562.6
116.6724,426.4
116.6871,137.1
116.7074,355.4
116.716,212.6
116.7193,229
116.7628,656.1
116.823,240.6
116.8394,455.2
116.8474,346.2
116.8907,20464
116.8986,136.4
116.9491,147.4
116.9632,273.3
116.969,143.4
116.9855,834.2
117.0099,232.3
117.0321,146.5
117.0333,19
117.0756,17.1
117.0784,345.1
117.1031,402.4
117.1135,270.9
117.1175,18.2
117.1397,156.9
117.1407,291.7
117.141,291.6
117.1713,682.6
117.1773,708.7
117.2521,323
117.2694,600.2
117.2722,589.1
117.2751,406
117.3418,143.6
117.3694,157.9
117.3906,334.6
117.4053,18.4
117.472,144.7
117.499,129.1
117.5197,341.3
117.5249,20
117.5305,521.9
117.562,21.2
117.6036,361.1
117.6269,18.8
117.6762,290.1
117.7102,17.9
117.7371,376.1
117.7491,377.1
117.7616,171.8
117.8415,273.9
117.8599,194.6
117.8702,454.3
117.8982,343.2
117.9201,130.1
117.9268,391.4
117.9455,24.7
117.97,17.1
117.9727,147.2
117.9904,264.3
117.9945,144.7
118.0589,199.7
118.0664,17.5
118.0729,19.1
118.1098,350.7
118.1253,226.3
118.1509,17
118.1607,164.7
118.1802,412.9
118.2327,147.5
118.2831,374.8
118.299,25.4
118.3304,183.4
118.3858,97.2
118.4289,417.5
118.4793,20.5
118.5484,21.6
118.5897,21
118.5943,175.5
118.6821,323.7
118.6939,515.7
118.6988,183.4
118.7067,529.1
118.7578,588
118.7674,519.9
118.8031,17.1
118.8209,16.5
118.8427,365.8
118.8457,285.4
118.8833,130.1
118.9065,132.4
118.9396,152.9
118.9424,960.1
118.9558,743.5
118.9615,357.3
118.9637,416.5
118.9695,302.5
118.9788,814
118.9997,294.6
119.0019,170.7
119.0437,19.8
119.0585,151.1
119.0617,125.3
119.0705,540.2
119.1437,392.4
119.1788,126
119.1885,182.1
119.1935,297.8
119.1953,694.7
119.2588,137.6
119.2768,159.8
119.3169,137.2
119.3407,162
119.3514,145.5
119.3729,520.4
119.4184,340.5
119.5082,16.9
119.5277,174
119.5299,217.9
119.5314,319.1
119.5517,381.8
119.5729,658.2
119.604,706.6
119.6132,129.7
119.6197,329.8
119.6389,16
119.6393,15.5
119.6482,302.2
119.6594,23.8
119.6637,572.8
119.6979,149.4
119.7203,343.8
119.7931,461
119.8325,613.4
119.8428,155.5
119.8481,19.5
119.8564,176.6
119.8635,603.2
119.8996,387.3
119.9135,287.2
119.963,173.6
120.0031,1584.7
120.0163,19.8
120.0653,505.3
120.0806,23240
120.1224,298.1
120.1417,20.7
120.1706,581.3
120.1869,156.7
120.2238,248
120.2272,21.9
120.2331,494.7
120.237,494.3
120.2373,506.6
120.2534,22.6
120.2627,282.5
120.317,19
120.3545,423.2
120.3775,278.8
120.3799,319.3
120.3844,631.1
120.4034,455.7
120.4145,180.6
120.4312,385
120.5624,158.6
120.5635,25.2
120.5647,700.2
120.6684,166.3
120.7082,303.8
120.776,191.3
120.7806,131.2
120.8297,126.4
120.841,318.5
120.8555,144.4
120.8573,144.4
120.9573,537.5
120.9627,159
120.966,541.8
120.9792,40.7
120.9806,18
120.9976,22.6
121.0074,196.2
121.0161,20.2
121.0282,319.4
121.0364,515.1
121.0415,315
121.0906,360.6
121.101,45.4
121.1416,16.3
121.1743,378.6
121.2792,151.2
121.2891,267.9
121.2936,150.8
121.3106,279.9
121.3225,204.5
121.3284,594.5
121.3386,158.4
121.3813,640.1
121.4312,18.7
121.5062,735.7
121.508,312.2
121.5173,19.7
121.5486,332.9
121.5632,111.6
121.5844,249.8
121.5995,135.1
121.6179,180.1
121.691,184
121.699,22.5
121.7066,630
121.7462,121.4
121.7821,228.3
121.8082,755.6
121.8222,143.8
121.8381,24.7
121.8714,18.7
121.8984,539.3
121.9,124.9
121.9122,210.9
121.9142,392
121.9225,157.8
121.9426,300.1
121.984,212.2
122.0295,20.7
122.0881,17.4
122.1544,21.2
122.3053,316.7
122.3109,370.6
122.3412,392.1
122.3817,694.3
122.3827,122.5
122.4124,354.3
122.419,677.2
122.4293,160.6
122.4592,17.3
122.4625,653.8
122.5178,19.9
122.6164,193.2
122.6684,137.2
122.6691,211
122.6695,177.5
122.7113,385.4
122.7161,764.9
122.7357,140.9
122.8312,289.9
122.8609,460.2
122.8857,18.8
122.8963,146.8
122.9082,614.1
122.9244,26760.7
122.9295,21.9
122.9519,357.4
122.9698,248.7
122.9737,251.8
123.0098,385.7
123.0166,116.8
123.025,335
123.0803,51.2
123.0993,276
123.1166,32.2
123.1252,147.3
123.1289,20.1
123.1549,420.9
123.1662,770.1
123.1674,19
123.1821,125.1
123.1872,367.3
123.2278,542.7
123.2294,16.6
123.2533,380.2
123.2553,292.7
123.2624,140.1
123.274,205.2
123.2879,501.9
123.3051,611.5
123.3268,142.4
123.3286,158.2
123.3425,582.9
123.3651,204.1
123.4551,112.4
123.4657,18.8
123.4829,377.6
123.5004,19.1
123.5203,478.4
123.5565,132.4
123.5612,628.4
123.5713,18.9
123.5788,21
123.5867,541.4
123.6193,722.7
123.6287,131.6
123.6533,228.7
123.6566,16
123.9187,132.5
123.936,117.2
124.0264,161
124.0351,155.2
124.0499,177.2
124.1099,633.3
124.1123,16.8
124.1421,245.4
124.1494,19
124.1695,190
124.1731,110.1
124.1803,448.4
124.2433,161
124.3745,183.4
124.3749,209
124.3932,172.9
124.3972,122.1
124.4071,112.1
124.4317,132.3
124.4368,19.4
124.4408,167.2
124.4427,18.6
124.4604,147.8
124.513,511.4
124.5586,117.5
124.5658,18.6
124.6182,513.3
124.6332,295.5
124.7051,176.9
124.7086,680.6
124.7518,630.6
124.7786,325.3
124.8178,275
124.8414,244.9
124.9059,723.5
124.9143,488.3
124.9225,2805.9
124.9656,620.1
124.9996,7975.3
125.0054,1189.4
125.0159,165.9
125.0269,136.9
125.0387,117.8
125.046,196.1
125.0595,37.7
125.0626,211.1
125.0801,219.9
125.128,149
125.1543,231.3
125.1772,18.1
125.1788,492.8
125.1965,280.7
125.2035,163.3
125.2426,19.5
125.2923,397.5
125.3152,222.3
125.435,273.8
125.4902,626.9
125.5775,19.3
125.5913,18.1
125.6245,18.2
125.6903,172.1
125.739,239.7
125.7928,533.5
125.7951,16.8
125.8196,533.5
125.8363,358.7
125.8465,293.9
125.8535,369.3
125.8637,378.2
125.8785,157.8
125.9037,126.1
125.9215,197.3
125.9999,219.7
126.0408,168.4
126.0452,352.2
126.0545,204.5
126.1343,779.2
126.1575,387.9
126.1692,155.3
126.2624,680.1
126.2697,133.6
126.3078,570.5
126.3436,739.5
126.3799,410.9
126.4611,21.8
126.5243,222.3
126.5502,227.5
126.5549,22.2
126.5628,372
126.5807,20.1
126.6104,904
126.6406,497.4
126.6424,633.4
126.7594,23.7
126.7635,136.9
126.7701,311.2
126.7754,355.2
126.8147,197
126.8653,330.1
126.8846,18.6
126.9228,142.7
127.0303,487.5
127.0344,175.3
127.0476,266.5
127.1152,363.5
127.1254,332.9
127.3509,473
127.3701,288.5
127.3751,127.2
127.4196,128.8
127.441,252.7
127.4645,331.1
127.5267,182.9
127.5842,258
127.6171,361.7
127.6199,148.8
127.629,167.5
127.6346,203.5
127.6457,367.1
127.7001,24.2
127.717,294.2
127.7303,175.1
127.766,311.3
127.7865,630.3
127.7898,143.5
127.7965,19.2
127.8278,564.8
127.8502,161.2
127.8723,305.9
127.8762,578.2
127.9492,526.6
127.9629,186.5
127.9793,19.1
127.9905,352.5
128.0014,231
128.0155,24.7
128.018,246.2
128.039,18.7
128.0805,232.6
128.0837,152.7
128.1029,260.9
128.1401,117.3
128.1503,158.9
128.1563,154.3
128.194,122.6
128.2264,17.4
128.2311,17.8
128.3807,411
128.3852,18.5
128.3901,119.3
128.411,790.2
128.4417,165.1
128.465,18.8
128.4668,630.9
128.5278,164.5
128.5681,225.4
128.6204,142.2
128.6316,19.6
128.6479,295.8
128.693,168
128.7266,362.6
128.842,404.6
128.8832,18.1
128.8846,21.9
128.9006,176.7
128.9608,254.8
128.9637,284.3
128.9796,399.2
128.9875,507.5
129.0136,587.3
129.0613,490.5
129.0964,376.1
129.1021,1578.9
129.1281,265.2
129.1988,375.5
129.2043,275.8
129.2226,19.9
129.2763,482.3
129.3494,16.6
129.3508,598.2
129.3597,196.7
129.4202,16.9
129.4592,468.1
129.4792,372.8
129.5605,282.1
129.6158,16.3
129.6275,21.1
129.6394,215.4
129.6539,272.8
129.66,554.6
129.7031,323.1
129.7492,275.9
129.7608,148.9
129.7811,168
129.8725,701.4
129.8782,217.1
129.8935,143.7
129.902,607.4
129.9584,279.8
129.9601,349.2
129.9735,753
129.9948,133.4
130.0497,14656
130.0562,171.2
130.0798,636.3
130.0985,414.1
130.1151,207.8
130.1285,232.7
130.2165,20.1
130.2557,170
130.2887,164.6
130.354,128.6
130.3834,138.2
130.4015,544.1
130.4258,127.5
130.4292,143.4
130.4579,229.2
130.4906,217.2
130.5117,156.9
130.5181,460.3
130.5245,191.8
130.5413,198.2
130.5662,713.3
130.6,184.7
130.6373,381.1
130.6474,226.9
130.6514,349.9
130.7888,149.9
130.8111,326.2
130.8134,129.4
130.8325,162.7
130.8547,531.7
130.889,570.6
130.8903,155.9
130.9169,18.4
130.9228,163.4
130.9279,287.6
130.9313,364.8
130.9387,231.4
130.9454,249.7
130.9522,182.3
130.9681,149.3
130.9788,179.8
131,192.7
131.0283,435.4
131.0297,340.7
131.0361,179.8
131.0488,185.5
131.0856,258.6
131.0884,605.6
131.0989,657.2
131.1111,18.3
131.1248,531.6
131.1344,21
131.1401,579.3
131.1466,175.9
131.1532,358.7
131.2496,496.9
131.2669,137
131.2905,206.9
131.3205,609.6
131.3922,371.2
131.4262,499.7
131.4411,233
131.4662,682.9
131.485,410.6
131.5827,133
131.6021,400
131.6226,443.5
131.6406,169.1
131.6698,18.9
131.6803,711.5
131.8024,556.8
131.9866,173.4
131.9947,190.4
132.003,36769.8
132.0193,157.4
132.0297,245.1
132.0596,171.7
132.0654,38572.9
132.0972,369.3
132.0988,169.7
132.2381,241.7
132.269,178
132.3394,145.7
132.3674,317.6
132.3752,329.9
132.3771,536.9
132.4061,157.7
132.5367,108.6
132.547,642.6
132.5529,144.4
132.6389,158.4
132.6716,365.7
132.6964,663.8
132.7425,627.5
132.7473,22.6
132.7691,257.4
132.7729,18.2
132.776,241.2
132.7847,17.1
132.8457,144.1
132.8615,19.5
132.8754,329.9
132.8833,135.6
132.8969,19.4
132.9533,142.3
132.958,887.7
132.9652,367.5
132.9694,136.1
132.987,1535.2
133.0216,332.1
133.0266,244.5
133.0663,18.7
133.0688,474
133.0857,67.4
133.097,36669.3
133.106,432.4
133.1101,205.1
133.1246,555
133.3882,20.3
133.4202,232.9
133.4641,160.6
133.4706,338.1
133.4805,547.6
133.5327,177.7
133.5698,309.6
133.5826,554.2
133.5948,247.2
133.6155,207.1
133.6774,237.1
133.6876,16.9
133.6943,191.6
133.769,161.2
133.8216,162.2
133.8606,22
133.8708,483.4
133.8932,601.3
133.895,262.3
133.9027,19.1
134.0187,8494.6
134.0537,19.5
134.1153,404.3
134.1637,20.2
134.1814,129.4
134.1922,22.3
134.2852,380
134.3813,607.2
134.3847,631.5
134.4496,146.6
134.563,118.9
134.5861,195.4
134.6276,462.1
134.6364,198
134.6953,410.9
134.7078,578.2
134.7936,359.8
134.8707,231.6
134.9399,151.8
134.9452,375.4
134.9563,169.2
134.9651,288.5
134.9735,281.2
134.9885,453.3
134.9962,23
135.0027,79411.9
135.0166,156.7
135.117,733.5
135.1195,333
135.1239,533.7
135.1364,114.4
135.1477,363.5
135.2037,308.6
135.2136,455.4
135.2343,184.9
135.3918,717.7
135.4002,234.7
135.4585,485
135.4872,585.6
135.5061,178.7
135.519,145
135.5309,18.4
135.5472,184.8
135.5872,488.5
135.5912,355.9
135.6636,341.7
135.6882,134.4
135.7071,248.6
135.7249,16.3
135.7863,714.7
135.7937,284.7
135.826,152.8
135.8305,24.6
135.8884,27.7
135.9056,133
135.9269,519.3
135.934,202.1
135.9387,19.8
135.9747,612.2
135.9769,3297.5
135.9892,386.7
136.0059,441.6
136.0177,530.7
136.0479,2128.4
136.0616,105.8
136.0755,18375.8
136.1688,369.6
136.1935,356.4
136.1984,723.7
136.2358,774.6
136.2409,419.4
136.2529,20.3
136.2725,179.1
136.2832,575.3
136.3633,18
136.3867,19.6
136.402,17.3
136.4256,182.6
136.4502,833.9
136.5281,598.6
136.5487,438.7
136.5538,411.9
136.5892,18.9
136.6002,139.6
136.6141,19.8
136.6183,128.5
136.6471,312
136.6807,206
136.7131,22.2
136.7538,19.9
136.7555,561.9
136.8253,21.2
136.8467,247.6
136.9093,19.8
136.9114,396.6
136.9414,21.1
136.953,248.1
136.9894,31
137.087,574.1
137.0949,231.3
137.141,453.3
137.163,257.9
137.1906,635.6
137.2625,251.5
137.2643,243.1
137.3029,306.5
137.3285,275
137.366,409.3
137.3754,134.7
137.4187,18.8
137.4581,308.5
137.4878,132.2
137.5174,147.8
137.5541,203.9
137.6043,512.4
137.616,323.2
137.6523,744.5
137.7297,22.4
137.7515,189.7
137.8782,245.1
137.8796,19.5
137.9252,398.9
137.9617,645
137.9809,17.2
137.9826,200.3
138.0385,213.4
138.0524,6355
138.0603,18.2
138.066,124.7
138.0886,135.2
138.1288,478
138.1517,421.7
138.2005,21
138.2051,759.3
138.2081,27.4
138.2219,207.9
138.2453,18
138.356,172.6
138.3575,125.2
138.3683,367.9
138.3853,399.4
138.4035,244.5
138.5148,352.6
138.52,661.7
138.6356,215.9
138.6604,521.6
138.6879,273.7
138.7629,21.4
138.7838,256
138.7926,15.4
138.7933,15.7
138.8519,166
138.9064,593.2
138.9392,403.7
138.9839,63.4
138.9931,591.4
139.0182,21.6
139.101,478.8
139.1039,21.1
139.125,376.3
139.1426,298.7
139.195,512.3
139.1994,121.4
139.2357,352.7
139.2794,337.7
139.285,361.7
139.3217,417.2
139.3227,576.9
139.3234,704.5
139.3359,367.5
139.3663,210.4
139.5281,650.2
139.5693,681.3
139.5773,131.6
139.605,514.8
139.6476,530.4
139.7193,130
139.7287,309.5
139.7595,535.7
139.7724,240.9
139.8019,17.9
139.8673,143.7
139.8766,384.6
139.9026,38.3
139.9368,17.9
139.9381,133.1
140.0163,4528.1
140.068,860
140.099,243
140.1394,382.8
140.191,190.3
140.2133,189.4
140.2412,499.2
140.3001,20.7
140.3427,512.8
140.374,200.2
140.3754,682.4
140.3927,21.7
140.4236,525.6
140.4817,615.2
140.505,139.3
140.5114,19.1
140.5198,565.1
140.5464,595
140.5831,105.7
140.586,131.3
140.5886,787.5
140.6243,347.4
140.6924,540.2
140.6966,19.2
140.6977,317
140.7093,429.4
140.7146,17.3
140.7476,569.9
140.7672,22.6
140.9033,403.8
140.9106,396.9
140.9577,249.3
140.9931,297.7
141.0003,11694.7
141.0196,172.8
141.0555,183.4
141.0573,558.4
141.1565,299.1
141.2033,171.1
141.307,447.4
141.334,389.9
141.3469,260.9
141.3736,425.4
141.4047,367
141.4781,453
141.5409,211.3
141.5909,132.5
141.5964,225.6
141.666,148.2
141.7559,117.8
141.8259,232.1
141.8535,712.4
141.9435,19.1
141.9831,136.8
141.9949,302.7
142.0037,394.6
142.0121,82.8
142.0153,31.7
142.0418,20
142.0497,185.6
142.0693,365.3
142.1755,704.1
142.2532,306.7
142.264,18.3
142.2664,488
142.3293,342.9
142.4193,264.2
142.4217,156
142.438,159.5
142.4818,17.3
142.5763,196.5
142.581,123.1
142.6515,18.3
142.6943,18.8
142.697,402.9
142.7023,607.6
142.7055,545.3
142.7484,537
142.8715,521.4
142.8753,337.5
142.9307,131.4
142.9423,516.5
142.9801,20.7
142.9961,275.6
143.0186,1568.5
143.0692,141.4
143.0813,36.1
143.145,310
143.1498,543.3
143.2128,133.3
143.4052,501.3
143.412,367.3
143.4186,131.3
143.4233,343.2
143.4723,393
143.5022,450.7
143.5205,19.5
143.567,135.6
143.591,154
143.6852,144.5
143.6872,627.6
143.7585,542.1
143.7812,516.2
143.7955,547.5
143.8637,212.1
143.895,401.2
143.9005,212.8
143.9758,20
143.9963,529.6
144.0031,258.2
144.0105,1496.8
144.0166,583.8
144.0292,272
144.0331,456.4
144.0569,240
144.0629,939.2
144.1524,192.1
144.2332,317.3
144.2867,128.5
144.3614,23.9
144.4565,537.7
144.4919,165.3
144.5077,145.7
144.5244,208.6
144.5573,500
144.578,238.7
144.5976,199.8
144.5982,260.8
144.6516,337.3
144.661,237.5
144.7096,176.1
144.7388,247.6
144.7569,293.1
144.8037,313.7
144.871,340
144.8727,122.6
144.9133,17.8
144.9235,276.9
144.9584,19.2
144.96,602.7
144.9743,145.8
144.9808,626.8
144.9946,23
145.0158,24.7
145.1564,1015.2
145.1907,625.2
145.3285,665.7
145.3688,371.5
145.4599,18.4
145.5031,17.8
145.5664,492.9
145.6002,583
145.629,348.1
145.64,135.9
145.6516,121
145.6583,650.4
145.6838,789.5
145.7076,21.4
145.7705,567.6
145.9822,167.9
145.9988,134.5
146.0068,640.6
146.0091,189.5
146.0122,2379.2
146.0155,646.2
146.0187,22556.6
146.0261,164.5
146.0403,17.4
146.0431,16.7
146.0481,19.3
146.077,20.5
146.0961,159.8
146.1437,149.5
146.1487,205.2
146.1546,534
146.2152,577.5
146.3087,178.8
146.3658,120.4
146.4073,250.7
146.442,552.7
146.4886,625.8
146.491,170.2
146.5007,402.1
146.5067,366.3
146.5132,255.7
146.5851,18.7
146.6066,331.8
146.6483,158.8
146.6909,501
146.7317,312.7
146.7356,396.7
146.7568,20.1
146.7773,734.1
146.8033,399.4
146.8247,119.5
146.9003,699.2
146.9491,509.5
146.9738,635.8
146.9816,127874.2
147.0032,20.8
147.05,147.6
147.0676,541.2
147.0763,86923.2
147.1127,41625.3
147.117,217.4
147.1378,20.3
147.1609,577.2
147.1876,234.9
147.1896,308.4
147.1992,18.6
147.2164,367.8
147.3055,637.2
147.3891,677.8
147.4384,594.6
147.5318,18.9
147.5442,394.6
147.5718,160.9
147.6115,179.3
147.7026,155
147.7364,298.2
147.7846,348.3
147.8445,584.6
147.8987,167.1
147.9212,156.4
147.9263,690.3
147.956,403.1
147.9617,348.8
147.977,995.5
147.9797,455.4
148.0772,548.6
148.0796,271.9
148.1076,134.9
148.1117,26
148.2196,397.6
148.2676,156.8
148.3318,119.1
148.3564,169.3
148.3777,354.8
148.4359,133.8
148.444,158
148.5321,2586.1
148.5595,364.6
148.5808,159.3
148.6198,627.4
148.6317,118.8
148.656,153.1
148.6976,337
148.8218,323
148.8616,282.6
148.8795,559.3
148.961,2018.6
148.9734,519.5
148.9881,853.9
149.0026,29.7
149.0184,1592.4
149.0232,2496.6
149.0281,231.4
149.0448,517.8
149.1018,19.9
149.1324,19.4
149.2088,17.9
149.2102,171.4
149.2566,147.4
149.2615,392.3
149.284,196.7
149.3437,172.2
149.3917,21.4
149.3981,20
149.4101,146.8
149.4118,934.3
149.4434,540.3
149.4646,549.6
149.4864,208.8
149.4897,283
149.5139,657.1
149.5378,153.7
149.5599,538.9
149.591,363.3
149.74,645.4
149.759,559.4
149.8026,203.8
149.8327,283.1
149.9056,17.9
149.9228,199.4
149.9609,131.2
149.9709,25
149.9799,152.1
149.9871,84.2
149.9903,314
149.9927,10687.7
150.0137,4905.9
150.0265,97.3
150.0285,19.2
150.0352,147.2
150.0449,17.4
150.0515,604
150.0602,139.1
150.0634,554.3
150.0806,19.8
150.0906,375
150.1275,135.8
150.1405,474.9
150.1481,230.4
150.2235,125.7
150.2589,19.1
150.2661,350.4
150.2839,415.8
150.3253,400
150.3643,135.9
150.4926,818.3
150.5151,314.8
150.5759,205.4
150.5982,151.6
150.6446,170.9
150.8322,143.8
150.8816,335.4
150.8875,311.1
150.8888,150.4
150.9145,190.6
150.9277,368.8
150.9466,384.9
150.9686,70.9
150.9767,71267
150.984,8707.7
151.0024,640.5
151.0164,320.9
151.0436,620
151.0477,1597.1
151.083,171.8
151.0949,162.9
151.1482,20.4
151.1809,174.4
151.2033,289.4
151.228,551.8
151.2433,160.7
151.2577,571.3
151.2763,270.4
151.2922,134.6
151.3045,352.1
151.3481,327.7
151.3552,141.9
151.4701,808
151.4854,435.4
151.5219,469.8
151.5635,148.7
151.6385,328.7
151.7041,752
151.7192,486.5
151.7418,406.9
151.7544,153.3
151.8101,341.6
151.8376,465.3
151.9508,958.4
151.9849,411.1
151.9874,276.6
152.0006,22.9
152.0219,4856.1
152.0317,3806.2
152.1958,374.3
152.2646,161
152.3536,515.8
152.4503,245.2
152.4864,122
152.5107,133
152.5336,275.2
152.5954,140.7
152.6881,395.2
152.6981,357.3
152.7107,367.5
152.7152,372.5
152.7292,246.6
152.7401,350.6
152.742,176.7
152.767,630.2
152.8142,20.2
152.8309,19.7
152.8706,120.1
152.8921,172.9
152.9049,812.4
152.9245,300.5
152.9415,418.3
152.9748,1957.4
152.9825,20.3
152.9999,25.4
153.005,396.4
153.0728,325.9
153.1256,353
153.2118,514.1
153.2901,504.6
153.3252,372.7
153.3447,863.9
153.4861,396.3
153.6027,220.2
153.6471,801.5
153.6783,657.3
153.7699,398.3
153.8276,369.8
153.8616,706.9
153.9536,174.6
153.9818,179
153.992,19.7
154.0264,2394.1
154.0677,235.4
154.1046,191.1
154.2302,351.6
154.3162,662.9
154.3684,209.5
154.3802,18.3
154.4272,573
154.4447,459.8
154.4622,267.1
154.4652,19.3
154.4881,229.6
154.5111,716.3
154.5212,213.2
154.6031,18.6
154.6581,18
154.6995,586.6
154.8533,717.7
154.8741,355.3
154.9025,711.5
154.9074,75.4
154.9294,348.3
154.9689,1151.4
155.0109,17.7
155.0426,2931.1
155.0491,643.3
155.0538,4534.7
155.0789,1067.9
155.091,558.9
155.1009,434.7
155.1448,277.3
155.1904,175
155.2107,575.8
155.2174,127.2
155.2418,242.5
155.2561,135.2
155.3156,698.2
155.3448,880.6
155.3566,18.8
155.3996,223
155.4192,19.9
155.5103,20.8
155.5462,158.4
155.5785,353.9
155.5817,336.3
155.5924,23.5
155.6642,192.3
155.6694,154
155.6774,336.3
155.7001,648.2
155.7604,611.5
155.7865,352.3
155.7996,750.5
155.8631,561.8
156.0105,23.3
156.0148,762.1
156.0191,16.3
156.0421,1770.3
156.0505,145.6
156.0572,77.9
156.0767,82937.2
156.1081,521.2
156.1155,164.8
156.1586,661.1
156.2143,363.9
156.2775,546.6
156.3452,263.7
156.3567,515.6
156.3955,185.1
156.4187,555.1
156.4246,120.3
156.6316,134.5
156.6869,239.8
156.7858,160.3
156.7916,350.8
156.8234,742.9
156.827,208.4
156.8296,17.1
156.9104,133.4
156.9586,20.9
156.9747,19
156.9792,28
156.9828,171.4
157.0059,231.7
157.0721,347.5
157.08,1267.8
157.0971,80.2
157.1229,143.4
157.1759,582.6
157.1789,352
157.2193,395.1
157.2413,19.2
157.3367,19.1
157.4061,695.1
157.4477,199
157.4972,133.1
157.5128,612.4
157.5236,18.5
157.5451,244
157.593,420.1
157.5975,603.3
157.6072,719.8
157.6104,475.5
157.6244,133
157.6266,332.2
157.6419,231.1
157.6958,244.3
157.7286,25.2
157.7302,682.5
157.7409,195.7
157.8203,347.7
157.8285,19
157.9705,140.6
158.027,2650.5
158.0403,565.4
158.0455,168.6
158.0502,366.6
158.1893,425.7
158.2334,537.6
158.2442,626.6
158.3084,716.9
158.313,108.9
158.3619,117.2
158.3837,633.3
158.4511,1087.6
158.5205,20.5
158.5592,216.7
158.5896,213.4
158.5981,311.4
158.7853,239.7
158.7885,693.6
158.8112,334.2
158.8478,292.9
158.8961,316.1
158.921,381.3
158.9275,571.3
158.964,10191.5
158.9738,377.8
158.9964,3019.9
159.0304,96.9
159.0343,176.6
159.0389,304.9
159.0763,213
159.0916,802.1
159.1229,130.4
159.1643,139.2
159.2523,453
159.304,585.2
159.4197,674.4
159.5399,139.8
159.5768,359.1
159.6233,501.3
159.658,747.8
159.739,18.3
159.7435,709.6
159.7496,561.9
159.7513,167.9
159.8386,138.6
159.9192,749.8
159.9576,303.6
159.972,180.1
159.9874,308.6
160.0227,35.8
160.0344,16822
160.0604,38895.4
160.0692,607.5
160.0968,132.8
160.1019,590.5
160.1204,19.2
160.182,159
160.2614,770
160.3304,130.7
160.3338,536.1
160.366,700.8
160.3684,159.3
160.4579,315.1
160.4613,554.7
160.4767,18.7
160.5062,18.1
160.538,23.6
160.6325,155.6
160.7707,699.9
160.7909,394.8
160.8541,130
160.8849,22.3
160.8931,304.6
160.9528,18.7
160.9921,234.7
161.0381,176.7
161.0636,154.7
161.0736,168.1
161.1191,263.7
161.1323,1028.8
161.1992,546
161.2635,128.5
161.2701,20.4
161.3055,584
161.3235,379.6
161.3259,335.6
161.4286,146.7
161.4775,710
161.4802,798.9
161.4856,498.5
161.5347,247.3
161.6166,416.4
161.6375,145.2
161.6397,19.9
161.6671,22.4
161.7447,719.7
161.7503,233.5
161.764,142.5
161.775,205.9
161.7812,169.3
161.8366,302.9
161.8674,19.9
161.8761,309.9
161.8946,330.2
161.9211,18.8
161.9594,822.9
162.0192,291.5
162.0501,11828.4
162.0733,170.3
162.1124,1062
162.1272,23.2
162.1995,915.5
162.3563,535.5
162.3942,793.6
162.4253,602.5
162.4352,200.7
162.4533,27.6
162.4582,280.5
162.5337,206.3
162.6347,150.4
162.6974,18.4
162.7692,196.4
162.795,154.6
162.8096,20.5
162.8387,244.1
162.8775,441
162.952,197
162.9556,5735.3
162.9673,252.5
162.9807,211.1
162.9887,25.7
162.9927,22.5
163.0154,4513.1
163.0342,443.5
163.0604,109.7
163.1072,590
163.1463,183.7
163.1499,553.1
163.2338,357.9
163.2557,950
163.3018,328
163.3229,137.5
163.3541,224.8
163.3605,138.8
163.4105,349.8
163.4371,385.9
163.4767,343.7
163.5008,569.5
163.5153,761.5
163.5215,381.4
163.5269,17.6
163.5442,21.4
163.5679,145.1
163.6134,661.1
163.6224,148.2
163.6735,417.5
163.6769,24.4
163.6832,543
163.6855,303.5
163.6881,466.6
163.7,656.7
163.721,652.2
163.726,206.6
163.7408,472.1
163.7563,547.7
163.7612,517
163.7636,547.2
163.7939,691.4
163.7978,21.2
163.8242,142
163.8393,21.1
163.8854,56.6
163.8967,724.9
163.9075,286.2
163.9994,40.3
164.0123,546.1
164.0294,15014.5
164.0891,18.6
164.0973,253.9
164.1969,335.1
164.2158,204.5
164.2368,18.7
164.3208,595.7
164.3366,731.4
164.3482,628.1
164.3832,702.6
164.4079,766.5
164.4085,764.3
164.4641,584.4
164.5366,279.5
164.5499,18.5
164.5519,744.6
164.5615,18.4
164.5744,285.2
164.5841,145
164.5969,110.6
164.5987,474.7
164.6532,509
164.7024,171.5
164.714,403
164.7429,374.5
164.8066,153.5
164.8093,265.3
164.8284,179.7
164.8319,216.1
164.883,325.6
164.9203,3113.1
164.9299,7681.4
164.9351,2872.8
164.9528,263
164.9729,17.2
164.9773,156.9
164.9844,62.9
164.9924,371
164.9958,25.2
164.9997,844.9
165.097,549.5
165.1202,158.8
165.1238,210.9
165.1315,284.4
165.2114,181.1
165.2354,266.1
165.2793,19.8
165.3124,104.4
165.3143,213.2
165.3323,687.1
165.4031,137.1
165.4362,191.3
165.4444,658.5
165.4582,445.2
165.5334,151
165.5492,282.9
165.5795,175.4
165.635,765.5
165.7264,295.3
165.8028,18.4
165.8507,141.4
165.8891,453.4
165.9329,18.8
165.9443,183.9
165.9487,275.6
165.9667,3398.6
165.972,18.2
165.9787,3138.4
165.9876,6805.5
165.9949,3483.8
166.0141,706.8
166.074,219.7
166.0889,506.5
166.1086,118.1
166.1611,395.1
166.2288,217
166.4094,231.1
166.4406,343.7
166.4982,305.1
166.5134,523.3
166.5208,494.5
166.5749,149.4
166.6029,575.4
166.6513,727.9
166.6609,275.8
166.7461,18.6
166.7968,18
166.8161,311.1
166.9507,39327.7
166.9626,876
166.9752,168.2
166.979,121.7
166.9984,122.2
166.9998,85.5
167.0217,12493.6
167.0842,19.1
167.1085,337.9
167.1221,156.2
167.1953,148.2
167.2122,237.2
167.2831,143
167.3029,518.5
167.3215,17.2
167.4625,593.9
167.4782,135
167.5001,164.7
167.5785,145.9
167.6021,128.1
167.6218,338.5
167.6248,241.7
167.6515,490.7
167.7255,161.9
167.7368,349.4
167.8561,241.8
167.8999,350.8
167.9945,4954.4
168.0013,232.5
168.0341,148.8
168.107,397.3
168.133,262
168.2123,18.3
168.297,710.1
168.3742,171
168.3798,511.8
168.4087,146.4
168.5121,18.5
168.5892,140.4
168.596,400.9
168.6491,20.1
168.691,21.6
168.7578,381.5
168.7747,184.6
168.925,144.2
168.9374,203.1
168.9488,5728.6
168.9815,658.4
168.9912,732.3
169.0197,313.5
169.0249,17.3
169.0583,75153.3
169.0645,243.4
169.0861,19.8
169.0947,1668.5
169.1163,470.3
169.174,448.7
169.2174,576.6
169.3179,397.8
169.3242,565.2
169.3864,384.8
169.4674,730.5
169.5408,338.9
169.569,22.5
169.6227,431.8
169.6292,191.4
169.7089,287.7
169.8557,468.4
169.8753,25.9
169.921,21.8
169.9312,164.9
169.9505,477.4
169.9853,820.3
170.0292,164.4
170.0326,2041.2
170.0355,676.3
170.0464,207.5
170.0618,549.3
170.0923,11621.7
170.1184,167.2
170.1213,536.8
170.1531,361.3
170.2149,19.2
170.2492,629
170.3053,348.2
170.3499,143.6
170.3801,718.4
170.4523,351.2
170.5304,126
170.5482,327.3
170.568,287.4
170.575,21.6
170.7345,650.2
170.7782,891.6
170.7806,678.2
170.7905,626
170.8045,521.1
170.8543,4201.8
170.864,663
170.914,277
171.0054,401.9
171.0166,1935
171.0196,387.9
171.0279,237
171.0506,18.3
171.0533,907.2
171.1583,777.4
171.1842,565.1
171.2026,256.8
171.207,396
171.2529,267.1
171.2586,382.3
171.2682,119.9
171.2763,648.1
171.4283,346.7
171.4366,157.6
171.5331,663.7
171.5511,346.9
171.6149,500.7
171.7075,611.3
171.7787,574.6
171.8386,306.5
171.868,204.5
171.8814,175.5
171.9606,162.4
171.9952,294.9
172.0158,166.3
172.028,1296.1
172.0309,152
172.0876,19.9
172.1081,302.3
172.1826,22.9
172.2457,614
172.2783,175.5
172.2936,16.9
172.3058,273.5
172.3303,310.9
172.4824,196.2
172.5112,291.4
172.5257,317.4
172.5369,243.1
172.5637,496.6
172.5962,459
172.6054,375.2
172.6097,350.6
172.6561,382.8
172.7272,144.2
172.7898,233.2
172.8112,345.5
172.8374,363.4
172.8402,242.9
172.8512,2482
172.8994,25.1
172.9717,143
173.0266,242.7
173.0292,793.2
173.0368,757.3
173.0728,592.7
173.0916,159.1
173.1006,267.8
173.1252,148.5
173.1363,257.4
173.434,250.9
173.4767,742.9
173.5906,18.8
173.6527,19.6
173.6965,523.8
173.7471,793.4
173.749,19.4
173.754,1074.6
173.8697,135.2
173.9086,452.4
173.9163,365.1
173.9219,258.8
173.9258,888
173.9435,465.1
173.9801,184.8
174.0178,133.2
174.075,149
174.0918,585.1
174.143,304.5
174.15,153.7
174.191,476.6
174.1974,557.4
174.1999,141.7
174.3068,653.5
174.3142,445.6
174.3172,139.1
174.3237,394.6
174.4554,273.3
174.5647,257.4
174.5891,21.6
174.601,197.8
174.6775,174.4
174.7818,273.3
174.848,362.5
174.9001,235.6
174.938,4190.5
174.9504,250.7
174.9565,785.5
174.9688,855.9
175.0206,26.5
175.0229,149
175.0342,6570.6
175.0453,1134.1
175.0906,16.8
175.1189,102667.9
175.1674,189.5
175.1929,256.3
175.3065,125.5
175.3579,756.8
175.4491,248.3
175.4879,315.6
175.4965,139.8
175.5289,188.9
175.543,18
175.5846,23.8
175.6173,19.7
175.7293,18.1
175.7721,19
175.8874,343.5
175.9293,576.4
175.9478,572.9
176.0004,33.4
176.0084,11778.7
176.0658,17408.1
176.103,1793.6
176.1223,1161.8
176.186,154.9
176.192,136.3
176.2731,19.9
176.2788,377.7
176.282,334.8
176.295,575.3
176.339,536
176.3531,136.4
176.3685,692.1
176.3719,180.6
176.533,710.5
176.6269,148.9
176.6439,19.8
176.6501,257.8
176.7445,532.8
176.8037,1351
176.8559,635.3
176.8937,162.6
176.9332,77.3
176.9827,372.5
176.9865,151.4
176.9923,1936.4
177.0246,2071.4
177.0611,7157.9
177.1056,253.9
177.1197,129.4
177.3104,323.9
177.3664,20.5
177.494,655.8
177.5023,460.3
177.6728,278.9
177.7797,272.1
177.9382,17.6
177.9711,219.5
177.9802,18.5
177.9949,32.1
178.0086,8786.7
178.0241,9003.4
178.0388,18.3
178.0586,6225.1
178.0867,17.6
178.1514,257.8
178.1802,20.3
178.2546,139.1
178.2572,798.8
178.2621,21.9
178.3171,242
178.3292,213
178.3357,1377.9
178.3611,153.8
178.3697,620.4
178.4091,347.2
178.4206,275.4
178.4394,209.6
178.4651,481.7
178.489,600
178.5496,173.8
178.7326,590.6
178.7881,676.4
178.8929,102.1
178.9013,18
178.9123,176.6
178.922,48.4
178.9786,21.4
179.0002,21.1
179.0028,155.2
179.194,113.4
179.2209,429.1
179.2952,19.1
179.2977,511.8
179.3491,479.8
179.4496,571.5
179.5997,359.6
179.6897,765.6
179.7164,650.8
179.748,199.2
179.8129,19.1
179.8677,222.8
179.8912,90.5
179.9485,714.9
179.9884,513.9
179.9956,25.3
180.0033,15273.7
180.0104,190.4
180.0545,157.5
180.1092,384.7
180.1125,132.2
180.1676,21.3
180.2644,16.7
180.3086,669.9
180.32,166.6
180.4256,617.6
180.4511,174.4
180.479,19.4
180.557,466.3
180.7687,305.3
180.7788,131.1
180.8004,185.8
180.8427,322.3
180.8687,380.4
180.8881,1649.9
180.8943,2532
180.9039,5078.1
180.9346,18.8
180.9574,640.5
180.9972,164.6
181.0156,88.9
181.0258,182.2
181.0587,19.7
181.0649,8490
181.2019,445.6
181.3026,331.5
181.3066,124.6
181.4974,200.8
181.5035,419.5
181.5061,359.8
181.5228,176.6
181.5401,759.2
181.6312,555.5
181.6403,580.5
181.6773,133.8
181.6951,529.3
181.7848,314.4
181.827,328.5
181.9026,124.7
181.9587,317.9
181.9618,464.7
182.0127,760.4
182.0424,28439.3
182.0809,540.8
182.1452,19.5
182.1909,223.6
182.3202,18.5
182.3397,790.6
182.3455,504.5
182.3815,360.1
182.4538,518.7
182.4766,21.6
182.6534,626.7
182.6781,147.5
182.6828,550.8
182.7139,406.8
182.728,408.6
182.8066,254.6
182.8493,20.3
182.9021,69.6
182.9495,143.4
183.0443,2579.6
183.0723,166.8
183.1126,454.1
183.2167,308.6
183.2332,250
183.4833,653.9
183.5318,283
183.6237,337.2
183.6474,144.4
183.8419,263.2
183.8546,166.4
183.9367,396.4
183.9647,1309.6
183.9811,214.3
184.0038,20.8
184.0083,475.5
184.0372,681.4
184.0733,4941294
184.1096,987.6
184.1621,19.3
184.182,963.6
184.2142,193.9
184.3103,353.3
184.3139,361.7
184.4084,717.6
184.7019,224.4
184.7865,151.3
184.7975,393.4
184.8571,630.6
184.8636,219.7
184.8854,19
184.9132,358.3
184.9298,36.3
184.9529,237.1
185.0046,17.1
185.0323,107145.9
185.0557,785.5
185.0602,581.4
185.0703,11005.4
185.0766,223933
185.1329,529.7
185.1411,126.7
185.2277,566.2
185.2845,159.3
185.289,677.4
185.311,697.7
185.3724,341.8
185.3809,153.9
185.4949,360.5
185.5014,209.3
185.5144,186
185.5437,139.6
185.696,16.6
185.7041,144
185.8771,259
185.8877,146.9
185.9597,2070.4
186.018,372.1
186.0357,1371.2
186.0776,30525.8
186.0869,135.5
186.1564,508.3
186.161,666.7
186.1699,247.6
186.2551,579.4
186.3399,142.3
186.4142,670.2
186.4295,159.6
186.4865,213.7
186.6085,653.5
186.6372,383.2
186.7085,449
186.7748,329.5
186.8593,393.4
186.8786,96.3
186.8856,198.6
186.8965,392
186.9119,3816.3
186.936,23.4
186.9575,19.1
187.0304,3110.3
187.0364,319.2
187.0447,587.5
187.0577,12391.8
187.0717,468
187.1076,1981.4
187.2523,722.1
187.2592,782.1
187.3386,166.7
187.3657,186.5
187.3695,258
187.4497,173.5
187.4704,139.9
187.48,162
187.4831,268
187.5043,18.7
187.5131,408.9
187.5368,20.5
187.5932,222
187.6243,711.2
187.7109,127.1
187.788,262.4
187.8788,25.6
187.8853,60
187.8932,210.1
187.9634,130.1
188.0528,367.9
188.1146,129
188.2269,449
188.23,134.1
188.2384,19.1
188.2405,16.8
188.2468,20.7
188.3266,275.7
188.4218,249.9
188.4945,200.6
188.5095,359.9
188.5202,340.6
188.5347,293.6
188.5958,383
188.6951,210.3
188.7197,235.7
188.7901,276.7
188.7935,208.4
188.8416,20.2
188.8647,19.3
188.877,86.8
188.9246,26.3
188.9938,361.5
189.0037,512.8
189.0209,98.7
189.0437,26.6
189.061,3306.2
189.087,7542.2
189.1361,212.3
189.1753,202.6
189.2245,478.5
189.2365,161.3
189.259,211.1
189.2679,242.7
189.3102,960.1
189.3886,18.6
189.415,196.9
189.4472,619.3
189.4918,553.6
189.5856,298.7
189.5956,184.1
189.6193,708.8
189.7212,483
189.74,21
189.8338,399.2
189.8742,322.4
189.8783,192.2
189.9274,18
189.9461,235.2
190.1162,205.1
190.1242,360.9
190.1602,19.5
190.2193,313.2
190.2509,388.7
190.4445,674
190.4543,19.3
190.4706,354.7
190.4779,19.5
190.8046,632.5
190.8725,1435.2
190.9122,3417.1
190.9887,126.1
191.0001,183.1
191.0082,6721.3
191.0168,594.3
191.0203,407.5
191.0239,27
191.0314,704.1
191.0403,100560.8
191.0767,17146.9
191.0979,124.3
191.1237,269
191.1564,585
191.1609,603.2
191.2408,281.1
191.2912,129.8
191.3089,670.8
191.3108,133.2
191.3513,141.1
191.3784,20.6
191.3925,195.3
191.4118,632.5
191.4968,250.6
191.5218,238.5
191.5914,109
191.6203,194.4
191.6285,294.3
191.6719,170
191.7283,309
191.7351,19.5
191.7537,161.9
191.7618,470.1
191.8545,335.3
191.881,23.8
191.9538,330.9
191.9572,504.6
191.9822,3047.4
191.995,156.7
192.0108,50.8
192.0148,127.1
192.0398,13270.8
192.0436,2032.1
192.0645,147
192.1121,375.8
192.1674,380.4
192.1851,142.6
192.2164,17.1
192.2338,283.9
192.3265,229.4
192.3919,19.9
192.43,172.8
192.4631,607.3
192.552,375.3
192.6196,134.3
192.6451,223.8
192.7043,265.7
192.7246,385.2
192.7531,571.2
192.8474,161.4
192.8687,20.8
192.9106,132.7
192.9456,21.6
192.9956,20.8
192.9986,6478.3
193.0063,18.5
193.0158,243.2
193.035,4199
193.0426,425.9
193.1069,427.3
193.202,375.2
193.2134,582.8
193.3717,207.2
193.4426,284
193.4455,170.8
193.4868,570.3
193.5431,396.8
193.6286,529.9
193.6644,551.3
193.7384,219.8
193.7848,130.6
193.831,18.3
193.9981,1935.5
194.0066,369.9
194.01,2193.4
194.0189,23.6
194.0326,3915.8
194.0927,301.4
194.1035,407.2
194.1388,145.4
194.151,186.2
194.1539,95.3
194.2309,337.7
194.2534,167.8
194.2599,549
194.2992,467.6
194.3105,230.9
194.3636,17.8
194.382,536.1
194.5749,557.7
194.6059,140.3
194.6362,154
194.6654,405.1
194.6786,565.9
194.767,677.9
194.889,21.6
194.9037,390.8
195.0438,428.2
195.058,900.8
195.0807,156
195.0836,496.1
195.1062,655.7
195.1293,404.5
195.1597,128.8
195.1621,325.7
195.2086,175.5
195.3776,151.2
195.4553,151.7
195.6469,22.2
195.6915,120
195.7995,560
195.8442,140.4
195.9044,23
195.9461,139.1
195.9772,1262.9
195.9818,59.3
195.9898,18.8
195.9975,925.4
196.0286,155.7
196.079,363.1
196.102,488.7
196.1356,184.4
196.1695,304.6
196.1969,159.8
196.2611,375.2
196.2646,428.8
196.3037,189.7
196.3201,334.3
196.5274,340.8
196.741,145.6
196.8651,2490.5
196.8683,394.1
196.8779,1925.2
196.9173,145.3
196.9274,450.9
196.9298,170.6
196.9324,298.4
196.9574,23.6
196.9695,23.2
196.9847,21.2
197.0164,329.7
197.1014,557.6
197.1124,203.8
197.1206,442.1
197.1577,962.1
197.1689,255.5
197.1762,209.5
197.3975,156.5
197.44,228.3
197.4987,584.7
197.6608,157.2
197.6726,602.2
197.7478,284.1
197.8146,174.1
197.8614,261.6
197.8704,22.3
197.8765,622.9
197.891,40.9
197.9043,325.3
197.9167,20.3
197.9433,432.9
197.9751,536.4
198.085,5401.6
198.0886,1191.9
198.1134,195.2
198.1852,4344
198.2003,605.2
198.2066,24.4
198.2644,17.6
198.3526,122.4
198.3994,128.4
198.4376,23.5
198.4711,189.9
198.5626,630.3
198.5995,129.8
198.689,303.1
198.7161,148.9
198.8542,25.1
198.8622,2481.8
198.8674,661.5
198.8804,126.2
198.8998,140.2
198.9224,596.7
198.9419,376
199.0166,418.2
199.0366,668.4
199.0438,399
199.0688,129.8
199.0753,207
199.0922,159.2
199.1143,569
199.1886,313.5
199.2571,18.3
199.342,189.2
199.4682,225
199.5001,724.1
199.5089,158.5
199.5319,107.2
199.5629,419.9
199.5733,237
199.6342,591.6
199.6692,366.8
199.698,190.3
199.7167,525.3
199.7618,232.9
199.784,21.8
199.7864,647.8
199.8433,267.8
199.9607,626
199.9907,36080.4
200.0187,342.8
200.0407,14517.1
200.0502,499.7
200.069,637.3
200.079,644.5
200.1198,229.9
200.1759,353.9
200.2584,21.7
200.2756,417.9
200.2815,411.4
200.284,855.6
200.3309,9229.7
200.34,372.6
200.3523,411
200.3746,18
200.3792,367.3
200.4634,474.3
200.6829,19.9
200.6941,491.2
200.7068,572.5
200.7289,539.5
200.7912,368.3
200.8697,202.3
200.8942,3277.6
200.9117,166.2
200.9375,548.9
200.9965,147.5
201.0011,357.4
201.0057,153.8
201.0106,224.8
201.0546,635.3
201.0871,86.5
201.1231,486.9
201.1619,516.1
201.3111,17.6
201.3322,726.4
201.3393,172.5
201.3637,142.4
201.4571,21.2
201.4753,222
201.4919,416.8
201.5519,568.6
201.5856,225.2
201.6175,190.2
201.6965,214.2
201.7094,18.7
201.7447,226.8
201.759,573.1
201.8197,385.4
201.8647,249.7
201.8944,319.2
201.9954,40
202.008,629.2
202.0162,88
202.0319,20.3
202.0342,262.1
202.0616,543.4
202.1085,415.5
202.1726,685.3
202.3051,736.1
202.3598,137.2
202.4387,287.8
202.4645,192.3
202.51,19.1
202.5136,173.9
202.5249,548.6
202.5628,206.3
202.5869,185.1
202.6237,152
202.632,207.1
202.6599,13204.2
202.7427,1139.4
202.7649,19.3
202.8623,216.9
202.8729,19.2
202.8894,336.4
202.8949,97.8
202.9128,417.8
202.9257,267.4
202.9412,255.1
203.0061,249.2
203.0318,9064.8
203.0379,16.9
203.0526,1102330
203.0767,7615.8
203.1026,717.9
203.1186,592.9
203.1851,467
203.2714,367
203.2845,249.9
203.5097,308
203.5391,591.7
203.9983,167.6
204.0206,239.6
204.0243,46224.4
204.0317,154.8
204.056,55473.9
204.0634,560.9
204.0865,832.1
204.1343,572.9
204.1746,18.3
204.1876,166.7
204.2335,18.7
204.2545,832.7
204.2782,493.5
204.3386,19.3
204.3535,415.2
204.3574,149.9
204.4322,18.2
204.4618,101.1
204.5054,18.1
204.5168,21.6
204.5365,238.7
204.542,143.7
204.5623,136
204.6055,184.6
204.6806,242.5
204.6908,19.7
204.7645,417.9
204.8687,245.5
204.8825,17.5
204.8886,744.9
204.8979,138.3
204.9409,650.8
204.9778,373.2
205.0021,528.9
205.0161,22.8
205.0273,456.6
205.0571,5039.8
205.0666,124.3
205.0832,25.8
205.0925,140.7
205.0973,174
205.0996,309.4
205.1093,366.6
205.1147,622.4
205.1187,478.9
205.1453,822.1
205.1593,398.2
205.2121,156.4
205.2743,637.7
205.415,18
205.4302,388.9
205.4342,17.9
205.463,212.1
205.494,665.4
205.5642,436.3
205.5786,145.6
205.6011,539.5
205.6809,236.5
205.7966,224.9
205.821,489.9
205.8892,66
205.9053,220.2
205.9371,256.3
205.9429,24.3
205.9911,138.9
206.0243,189.2
206.0472,192.4
206.0554,459.1
206.1263,17.8
206.1621,152.1
206.2451,17.6
206.3124,214.5
206.4916,144.7
206.7098,620.7
206.746,134.9
206.7632,531.9
206.7947,558.6
206.8464,162.4
206.8878,293
206.894,8312.3
206.8983,644.7
206.9167,264.7
206.982,4096.9
206.9978,203.1
207.0143,96319.9
207.0314,295.4
207.0381,183.5
207.0443,1188.2
207.0506,11769.9
207.0537,168.1
207.0639,19.4
207.1393,21.1
207.1433,150.9
207.1596,346.6
207.168,344.5
207.2586,289.4
207.2807,151.6
207.2952,351.4
207.3771,321.1
207.4713,166.9
207.5677,412.4
207.6188,672.6
207.7502,197.9
207.8162,435.7
207.8215,558.2
207.8508,23
207.876,20.7
207.8862,183.2
207.9904,249.5
208.0137,2071.4
208.0177,905.2
208.0542,409.4
208.0917,370.9
208.1763,148.8
208.2646,358.7
208.3457,660.8
208.4565,18.6
208.4727,693.5
208.5722,157.2
208.598,246.1
208.6824,28.2
208.7268,588.8
208.7778,132.5
208.7975,310.3
208.8305,19
208.8493,145.1
208.883,3353.3
208.891,7329.7
208.8959,592.1
208.908,157.5
209.0091,444.4
209.0124,4056.5
209.0341,135.6
209.0898,208.7
209.1169,121.1
209.169,170.5
209.305,595.7
209.3185,18.4
209.4815,19
209.4989,143.1
209.5897,128.2
209.6082,130.6
210.6451,371
210.7692,110.7
210.8675,374.5
210.9212,401.2
210.9447,713.9
210.9477,61.8
210.9633,216.7
211.0141,373.7
211.0567,247.6
211.069,1038.3
211.0996,132.9
211.1195,579.1
211.1696,18.9
211.1837,131
211.32,2832.4
211.3254,10400
211.3317,29304.4
211.3368,39221.6
211.3416,23821.4
211.4496,21.3
211.4758,146.4
211.5854,156.6
211.5904,229.6
211.5935,169.8
211.6178,747.3
211.6222,408
211.66,144.4
211.6875,20.8
211.7723,280.3
211.7776,376.6
211.8244,173.5
211.8683,156.8
211.9447,53.8
211.9522,120.5
211.9578,689.4
211.9666,138.9
212.0739,76.1
212.145,283.2
212.1592,335.4
212.2293,20.9
212.2628,212.7
212.3121,446.9
212.4197,615.4
212.5751,251.5
212.6448,857.7
212.6823,489.2
212.7094,482.4
212.7905,565
212.8393,2499.2
212.8606,21.9
212.8788,25.1
212.9151,22
212.9648,21.1
212.9785,882
213.032,46.5
213.0546,334.9
213.0746,993.4
213.1029,393.5
213.1117,149
213.1146,353.8
213.2258,135.7
213.2358,241.8
213.2642,237.4
213.3258,18.4
213.4161,312.1
213.4966,19.8
213.5844,262.2
213.6145,186.1
213.661,300.2
213.8467,142.6
213.8875,419.5
213.8953,167.6
213.9022,38.1
213.962,3551.4
213.9846,270.9
214.0064,378.9
214.0106,668.1
214.0246,20.1
214.0361,325.7
214.0396,22.2
214.0589,12399.9
214.0897,1351.6
214.1821,453.1
214.2287,160.4
214.2704,261.2
214.2737,196.2
214.3017,351.9
214.3841,570.6
214.663,516.6
214.8334,293.3
214.8363,1240.3
214.8734,856.1
214.8928,664.8
214.8998,243.4
214.9098,572.6
214.9171,25.8
214.9627,24.9
214.9655,112.7
215.0486,132.5
215.093,64.6
215.2263,731.5
215.2913,216.8
215.2991,18.3
215.3204,22.7
215.394,143.3
215.4123,679.7
215.4333,623.6
215.4441,125.3
215.529,477.9
215.55,320
215.6335,588.8
215.7004,188.3
215.7196,323.3
215.7231,227.8
215.8398,235.2
215.8449,217.4
215.8633,355.9
215.8738,66.3
215.8809,46.7
215.9098,51.5
215.9576,58
215.9635,566.1
216.0146,10091.4
216.085,533.8
216.0987,37.9
216.1332,660.5
216.1728,258.9
216.2394,367.7
216.2565,799.4
216.3379,139.4
216.4952,1087.3
216.5558,131
216.5884,234.9
216.6168,18.7
216.6755,21.1
216.7603,348.1
216.7949,233.4
216.8172,503
216.8507,222.8
216.8714,298.9
216.9227,35953.9
217.0271,23.6
217.0555,479.2
217.0662,183.4
217.0789,164.6
217.1871,135.4
217.2319,268.7
217.4108,146
217.4632,276.1
217.4792,19.8
217.6372,168.3
217.7553,370.7
217.8076,352.8
217.8469,750.1
217.9721,20.5
217.9812,186.1
218.0162,18.9
218.0228,601.6
218.1109,422.6
218.1185,723.1
218.1389,221.7
218.151,19.4
218.1611,599.3
218.1818,364.9
218.2523,1136.7
218.3154,126.8
218.3854,645.4
218.4329,705.4
218.4832,274.1
218.5385,17.2
218.5576,343.1
218.7234,366.4
218.7644,250.5
218.7784,153.7
218.787,520.6
218.8674,383.5
218.9045,397.1
218.9087,506
218.9198,9436.3
218.9326,173.7
218.9852,146.7
219.0176,758.3
219.0266,1535720.1
219.0829,6906.8
219.0917,133.5
219.2376,606
219.3311,135.2
219.5213,504.8
219.5536,385.6
219.5617,385.5
219.6525,523.9
219.7164,472.8
219.7668,321.8
219.8813,776.8
219.9488,363.3
219.9792,274.1
220.0299,83473
220.037,2592.8
220.0668,2535.4
220.1017,147.3
220.1389,284.4
220.1672,407.1
220.2605,125.4
220.3269,389.8
220.431,254.2
220.7098,371.8
220.8088,331
220.8136,581.7
220.8409,171.6
220.8616,17.9
220.8836,101.3
220.9038,78.7
220.9094,1053.2
220.9326,45.6
220.9353,690.5
220.9941,492.1
220.9987,159.8
221.0247,94561.9
221.0308,10861.4
221.0457,18.5
221.0509,2182.4
221.0577,534.6
221.0611,509
221.0843,1064.6
221.0874,324.3
221.1396,469.3
221.1613,19.5
221.1762,152.2
221.3055,119.4
221.318,271.6
221.3383,1033.2
221.3437,199.8
221.3816,18.5
221.4507,551.9
221.6019,388
221.6235,17.9
221.6577,558.9
221.701,19.6
221.7504,458.1
221.8275,261.7
221.9451,136
221.9563,116.2
221.9835,733
222.0136,301
222.0188,19.6
222.028,2881
222.0357,586.9
222.084,50.2
222.0879,28.6
222.1445,152.4
222.1584,164.6
222.224,166.1
222.2268,315
222.4255,683.8
222.5629,411.6
222.7943,657.8
222.853,158
222.863,385.6
222.8679,11299.8
222.8987,736.1
222.9539,929.8
222.9607,298.6
222.9882,15633.2
223.0247,1449.6
223.0286,383
223.0367,1386.5
223.0636,378.2
223.0813,23.2
223.1764,371.6
223.3234,777.4
223.3704,355.9
223.3925,553.7
223.5523,140.5
223.6391,22.4
223.6556,149.1
223.6671,156.8
223.6779,143.9
223.7224,23.3
223.7564,160.4
223.7625,343
223.7844,219.7
223.8299,431.2
223.8509,382.8
223.8697,20.8
223.901,19.7
223.9181,457.6
223.9428,152.7
223.9535,27.6
224.1518,210.8
224.1973,635.2
224.2042,592.2
224.3013,191.4
224.4195,150.5
224.5027,147.9
224.5282,338.9
224.7625,270.6
224.7815,712.5
224.8649,8183.6
224.9273,188.9
224.9859,363.7
225.0171,20.1
225.043,90.4
225.0486,276.9
225.0547,24318.4
225.0841,1584.6
225.0902,20.6
225.2674,138
225.2744,17.4
225.2964,377.8
225.2994,560.8
225.4544,18.4
225.4856,775.5
225.5175,343.2
225.5214,727.6
225.5413,563
225.5985,713.2
225.6292,175.1
225.6605,287.9
225.8066,151.1
225.8597,1026.3
225.938,52.1
225.9621,77.4
225.9666,410.8
226.0019,31
226.0064,1388.4
226.0241,7166.9
226.0329,175.6
226.0411,266.3
226.0451,7157.1
226.058,652.8
226.0866,277
226.1051,450.9
226.1086,172.9
226.2106,115
226.2277,172.1
226.2684,605.6
226.3052,486.9
226.3464,233
226.4189,336.3
226.4382,228.1
226.4746,114
226.4806,438.5
226.5945,310.7
226.6648,124.6
226.7629,627.5
226.7938,23.5
226.8942,31.3
226.9516,35694.7
226.9712,116.8
227.0225,27.7
227.034,254.4
227.0428,687.4
227.0625,129.1
227.079,530.7
227.0864,222.6
227.1162,597.6
227.1285,140.3
227.1902,347.6
227.2578,580
227.2828,477.1
227.3444,378.5
227.5495,114.8
227.6792,139.5
227.6937,297.5
227.7616,647.3
227.7948,140.3
227.825,462.5
227.8629,622.2
227.9086,306.5
227.9195,375.5
227.9621,557
228.0003,171.3
228.0218,1117.5
228.1946,1149.2
228.2193,239.6
228.3171,20.5
228.3887,242.3
228.4987,18.3
228.5482,238.7
228.564,369.9
228.6299,114.9
228.6764,609.8
228.7198,325.7
228.7272,220.4
228.7598,252.3
228.8116,376.1
228.8143,254.5
228.8764,394.2
228.8891,69
228.9258,19.7
228.96,242.2
228.9651,21.7
229.0498,146.6
229.094,19.5
229.1523,366.2
229.3135,707.7
229.339,565.2
229.4443,647.6
229.4902,304.6
229.5654,19.9
229.6364,21.1
229.77,768.3
229.8812,308.5
229.9413,604
229.9569,13305.1
230.0332,118.3
230.1135,601.6
230.1855,537.5
230.2019,292.6
230.3171,245
230.3941,672.5
230.4477,293
230.4607,181.6
230.4946,22.2
230.6123,179.1
230.6346,333
230.7378,297.2
230.8114,841.6
230.8676,24.1
230.89,529.2
230.9599,1020.1
230.9757,671.8
231.1303,261.7
231.1743,459.3
231.1931,688
231.2406,195.1
231.3286,185
231.3737,25
231.3811,554.2
231.5618,738.9
231.6625,299
231.6925,198.8
231.7343,155.2
231.9528,279.1
231.9575,310.9
231.9726,157.8
231.9864,346
231.9951,20.1
232.0595,447.2
232.1445,18
232.1697,156.8
232.1866,20.9
232.1999,18.2
232.3569,179.5
232.4554,719.4
232.6137,295.2
232.6845,505.2
232.7062,356.5
232.772,22.6
232.8119,364
232.8793,562.9
232.8832,198.5
232.8967,38278
232.9053,20.7
232.9225,585.3
232.928,157.2
232.9591,17.8
233.0298,152
233.0509,7314.4
233.0672,480.9
233.2516,617.9
233.266,399.1
233.28,205.8
233.3306,446.5
233.3444,528.2
233.3602,145.2
233.583,261.7
233.61,367.8
233.7075,537.7
233.729,241.4
233.7358,270
233.9528,136.3
234.0166,132.1
234.0336,230.2
234.0474,671.5
234.0758,178.7
234.1236,407.4
234.2852,18.2
234.5209,621.2
234.5238,20.5
234.5355,156.3
234.6653,345.6
234.7246,164.6
234.736,415.6
234.8832,22.4
234.8937,11053.4
234.8997,137.2
234.9816,5482.4
234.9889,393.1
235.0367,841.9
235.0568,2594.4
235.0667,289.8
235.0925,7862.6
235.1155,143.9
235.1367,167.2
235.1454,290.8
235.2605,196.6
235.3266,157.5
235.3778,18.4
235.467,188.3
235.4788,155.8
235.4843,170.7
235.5885,159.2
235.6136,396.3
235.6583,510.2
235.6979,189.8
235.7128,385.6
235.7628,169.8
235.8053,266.1
235.8137,248
236.0198,700.6
236.041,2584.9
236.0457,174.1
236.0716,50968
236.0952,153.6
236.1266,473.9
236.2605,125.3
236.2828,834.6
236.4346,395.8
236.4388,140.6
236.5257,412.6
236.5711,291.7
236.581,665.2
236.7039,209.1
236.8058,537.7
236.878,520
236.907,162.3
236.9454,253.3
236.9696,143.5
237.0523,583.8
237.0576,526.2
237.0636,249.7
237.0704,678.4
237.075,2307.3
237.0794,22.4
237.1875,165
237.291,152.5
237.4506,451.9
237.5488,383.4
237.6414,232.7
237.6596,290.7
237.6925,755
237.8444,115.5
237.8906,161.1
237.9736,18.3
238.0148,136.7
238.0674,768.2
238.0778,68.4
238.3125,220.2
238.4968,148.3
238.5958,188.6
238.7474,19.5
238.8169,412.8
238.8418,5079.2
238.9075,176.9
239.0091,3075.5
239.041,482.7
239.049,530.2
239.0551,167.2
239.0639,1395.2
239.0679,1969.7
239.1008,145.1
239.1917,348.3
239.2368,1024.6
239.4873,791.5
239.5013,111.9
239.5396,151.1
239.6218,262.3
239.7857,292.6
239.8631,196.5
240.0185,155.2
240.0316,538.9
240.0994,859.3
240.1087,643.2
240.132,552.2
240.1703,212.5
240.2427,358.7
240.252,613.3
240.2696,131.1
240.2858,226.3
240.3506,19
240.4908,125.8
240.6292,769.5
240.6467,18
240.7201,21.6
240.7731,230.2
240.8085,599.2
240.8389,3061.7
240.8668,20.6
240.9092,24.4
240.9446,19.9
240.9547,1894.8
240.9673,915.9
241.0165,203.4
241.0499,154.2
241.0586,380.9
241.0922,19.5
241.1221,153.2
241.1419,129.4
241.3093,173.3
241.3432,504.6
241.3567,260.6
241.5957,282.7
241.6026,363.4
241.7937,397.5
241.7957,395.8
241.8076,175.6
241.9364,338.9
241.9584,171.4
241.9774,153.8
241.9979,1105.4
242.0192,5829.1
242.0302,433
242.0714,541.1
242.1489,672
242.1692,209
242.22,160.6
242.2711,313.3
242.2729,315.1
242.3141,118.1
242.4361,198.4
242.4542,24.8
242.6011,536.3
242.7926,349.9
242.8132,73.9
242.8198,483
242.8407,151.1
242.9064,143
242.919,374.6
242.9255,25629.7
242.9634,16.4
243.0063,77.8
243.033,1647.3
243.0386,208.3
243.0532,10031.1
243.0653,7486.6
243.227,18.3
243.2404,129.1
243.3062,647.4
243.3294,419.9
243.5017,188.1
243.5861,123.5
243.8009,377.6
243.8439,359.1
243.911,686.7
243.9625,175.5
243.9726,4019
244.0124,356.7
244.0876,19.8
244.1732,202.4
244.2463,136.9
244.5728,565.5
244.6156,550.3
244.6203,371.9
244.6834,182.6
244.7873,516.3
244.8707,2613.4
244.8753,18.9
244.9043,246.6
244.9212,759.4
244.9759,260
245.0149,267.9
245.038,210.9
245.0476,120.5
245.0767,102.1
245.1155,528.2
245.1333,393
245.1514,632.7
245.1564,562.3
245.2698,601.8
245.376,182.7
245.3995,243.4
245.4042,186.2
245.4823,301.9
245.4861,297.4
245.4908,407.6
245.5665,418.3
245.5831,514.7
245.5859,136.1
245.6088,893.2
245.6632,157.7
245.7758,223.2
245.7882,210.7
245.7946,174.4
245.8238,256.3
245.9539,21.6
245.9689,24.4
245.973,184.6
245.9884,22
246.0014,98.6
246.0087,19
246.0226,219.3
246.0526,291.2
246.1077,787.5
246.2179,234.6
246.3392,368.9
246.4101,656.1
246.4787,153.7
246.6168,157
246.6285,236.5
246.6868,161
246.7125,450.8
246.7229,128.3
246.7679,161
246.783,329.1
246.8075,163.7
246.8445,19.6
246.8624,863
246.8682,701.4
246.9511,2847.2
246.963,133.3
247.0025,444
247.0333,312.7
247.0365,1817
247.0666,1279.1
247.0924,2482.2
247.1025,791.3
247.1107,577.3
247.1161,406.1
247.1581,125
247.2033,553.1
247.3255,259
247.3556,159.7
247.3722,763.9
247.3773,335
247.5064,618.3
247.5194,337
247.5328,351.4
247.6394,592.4
247.661,23.8
247.7116,185.1
247.8924,985.8
247.9223,23
247.9384,532.8
247.9675,764.2
247.9831,1124.9
248.1242,26532.4
248.1572,265.5
248.2146,209.4
248.2446,368.6
248.2957,551.9
248.3413,436.5
248.4117,220.2
248.4608,334.9
248.7305,158.6
248.7835,20.8
248.8076,21.7
248.8179,193.1
248.8626,51.1
248.8707,12167.8
248.9006,154.2
248.9156,53.5
248.9357,165.3
248.9481,166
248.9597,1143.7
248.9699,174.2
249.0159,1901.3
249.0453,410
249.0612,12053.8
249.1078,166.4
249.1303,198.9
249.1844,17.3
249.2069,658.4
249.2856,135.7
249.8016,620.7
249.8228,22.9
249.8394,559.4
249.8543,18.1
249.8626,458.2
249.8864,134.3
249.8936,212.9
249.9678,44.1
250.0097,19.5
250.0277,548.1
250.0336,195.4
250.0382,389.9
250.046,607.6
250.0767,341.8
250.0841,149.3
250.1528,17.5
250.2416,376.1
250.2721,21.2
250.2888,283.7
250.4445,353.4
250.511,743.5
250.6607,232.9
250.6669,162.3
250.7556,143.6
250.7869,447.9
250.8233,303.4
250.8635,159.3
250.8675,2473.7
250.8938,283.5
250.9204,1832.7
250.9557,1765.3
250.9941,537.5
251.0007,35.1
251.0224,244.5
251.028,229
251.108,21.5
251.2164,366.5
251.2403,240.4
251.2494,284.9
251.2863,129.1
251.3293,19.7
251.3619,137.3
251.3751,360.1
251.4869,627.2
251.6514,180.1
251.6725,292.7
251.819,272.3
251.8867,260
251.9805,208
252.0366,124.9
252.0456,120434.5
252.0764,613.7
252.1068,623.2
252.1731,300.9
252.4984,585.4
252.5541,208.1
252.5781,120.4
252.6539,609.5
252.808,374.3
252.8563,410.3
252.8753,184.3
252.9106,91.1
252.9171,719.7
252.9514,136.9
252.9578,383
252.9674,773.8
252.9842,147.3
252.9971,18.6
253.0489,9075.9
253.0801,343.7
253.1072,318.9
253.1163,147
253.1496,555.3
253.235,18.1
253.3062,287
253.318,321
253.3492,333.2
253.4566,320.3
253.9239,18.8
253.9726,18.3
253.9778,19.2
254.0437,2485.8
254.1203,131.9
254.2828,21.6
254.3666,437
254.4147,368.6
254.435,212.2
254.4414,425.7
254.5469,702.5
254.8159,2280.1
254.8239,4587.4
254.9205,372.7
254.9859,210.2
255.0329,36095.5
255.0379,2812.3
255.0473,127.7
255.0879,593.3
255.1449,557.2
255.169,169.7
255.2429,254.9
255.2463,16.5
255.259,511.9
255.3356,22.6
255.4072,119.5
255.6287,20.5
255.6678,420.8
255.6868,412
255.6917,418.1
255.7621,384.4
255.8754,22.7
255.8979,157.2
255.9853,153.7
256.0031,2731.7
256.0362,336.5
256.0434,211.4
256.0588,47.7
256.0662,265
256.0768,380.6
256.0867,444.9
256.1175,538.5
256.1502,311.9
256.2405,149.4
256.2753,22.1
256.5528,377.5
256.57,837.9
256.5918,20.6
256.6198,165.1
256.6726,131.8
256.7381,571.7
256.7398,604.8
256.8124,483.7
256.8208,3619.9
256.9455,20.3
256.9618,234.1
256.9779,205
256.9826,17.9
256.9934,218.2
257.0135,18.1
257.022,340.4
257.0409,313.3
257.0486,8003.9
257.0663,1367.8
257.0745,49585.6
257.0817,188
257.095,418.2
257.139,194.2
257.1534,678.1
257.2808,492
257.5669,149
257.5809,339.6
257.5954,163.6
257.7384,275.1
257.7607,281.7
257.9441,628.2
257.9518,343.6
257.9883,86.6
257.9926,1190.4
258.0299,231.4
258.068,317.6
258.0743,57.7
258.0777,668.9
258.1102,31472.4
258.172,558.8
258.2177,136.3
258.2265,257.1
258.3392,356.5
258.5094,199.9
258.5636,20.6
258.6115,316.1
258.642,481
258.656,621.2
258.6829,701.9
258.7721,374.1
258.8179,1789.8
258.8631,61.3
258.8995,6564.8
259.0267,809.9
259.0645,683.3
259.0912,142.9
259.1198,17.8
259.1985,320.9
259.4101,493.2
259.43,757
259.5226,161.5
259.5311,203.8
259.5591,526.3
259.561,862.9
259.564,469.2
259.5684,211.7
259.6263,250.5
259.6671,1090.8
259.6924,137.7
259.7182,506.9
259.7477,313.5
259.7497,280.1
259.9441,21.5
259.9546,19.5
260.0385,419.5
260.09,272.3
260.1788,733.2
260.2146,20.2
260.239,18.4
260.4123,19.7
260.4183,342.3
260.5245,346.8
260.5666,414
260.6297,405.6
260.7622,476.1
260.7685,203.8
260.782,351.5
260.8447,1192.9
260.8784,53.4
260.8893,37.6
260.9489,7136.8
260.9597,198.3
261.0902,20.1
261.1159,519.9
261.1889,140.9
261.2244,20.5
261.3326,21.9
261.3768,386.1
261.3856,358.2
261.4152,19.8
261.5487,291.8
261.6949,21.6
261.7216,837.8
261.8135,612.8
261.9301,310.3
261.9832,261.5
261.9878,373
262.0536,496.7
262.0818,2678.8
262.1345,223.7
262.222,740.4
262.2531,22.3
262.3412,797.9
262.5967,579.8
262.6087,193.4
262.7749,167.4
262.8022,25.9
262.8086,164.1
262.8419,623.7
262.93,165.7
262.9456,413.8
263.0199,447.7
263.0735,626.6
263.0849,982.7
263.2429,541.6
263.2883,19.1
263.336,327.5
263.3933,22.3
263.4647,155.5
263.4818,18.7
263.5331,20.3
263.5823,424.8
263.7899,380.3
263.9023,25.2
263.9523,282.1
263.9767,18.8
263.9891,311.6
263.999,139
264.0347,641
264.1135,174.4
264.1881,20.5
264.4293,245.7
264.4674,133.4
264.5326,318.3
264.729,293.4
264.7902,17.7
264.7951,715.5
264.8272,532.6
264.8445,3017.3
264.8527,3116.2
264.8632,627.7
264.8731,318.7
264.9335,3717.7
264.973,846
264.9883,7684.9
265.0165,80.4
265.0286,245.2
265.0351,9714.2
265.0472,3778.4
265.0761,329.2
265.0853,275.4
265.1276,170.9
265.1478,175.1
265.2649,613.8
265.3712,134.7
265.5227,367.6
265.6532,349.1
265.6875,545.2
265.7528,307.4
265.8252,18.6
265.8445,149.1
265.8598,230.8
265.9576,142.8
265.9781,461.9
266.0783,233.4
266.1172,275.4
266.3754,20.7
266.4017,822.1
266.5432,440.7
266.5738,161.2
266.6906,23.4
266.822,24.8
266.8495,2193.8
266.8939,2639.8
266.9076,651.8
266.9291,852.2
266.9588,92.2
266.9759,18.6
267.0129,232.7
267.0334,879
267.1631,20.6
267.3863,322.2
267.3956,661.7
267.6162,281.9
267.6988,552.6
267.7898,398.8
267.7981,355.2
267.8067,574.6
267.9115,18.6
267.9349,19.4
267.9439,20.2
267.9735,158.4
267.9937,1147.2
268.0062,451
268.009,155.3
268.0292,798.9
268.2447,323.7
268.2554,656.4
268.3587,419.1
268.3877,272.9
268.4018,173.4
268.4689,154.5
268.6098,156.3
268.8814,690.3
268.8916,647.4
268.9789,20.7
268.9975,32.5
269.0286,765.9
269.0316,839.5
269.0448,16243.9
269.0486,49755.1
269.0631,283.2
269.0746,253.4
269.1237,390.8
269.1363,170
269.2128,147.8
269.3032,398.5
269.3557,186.5
269.4073,511.2
269.4709,562.8
269.5158,651.4
269.6453,131.2
269.6689,388.2
269.7713,453.9
269.9326,389.6
269.9588,529.9
269.9893,383.9
269.994,1183.2
270.0096,94.5
270.0247,19619.9
270.0473,21301.4
270.0528,313
270.0641,20.2
270.1151,215.9
270.1452,2902.2
270.1773,21.1
270.1872,19
270.1956,612.7
270.2158,150.7
270.2776,194.4
270.4747,370.5
270.62,476.8
270.6874,736.3
270.7069,335
270.7977,1617
270.8873,19.1
270.932,209.2
270.9611,375.1
270.9778,13923.3
271.006,189.2
271.028,1725
271.0506,244.2
271.064,249.7
271.0902,3342
271.1487,601.2
271.2234,184.8
271.5441,152.9
271.6549,755.1
271.7744,257.4
271.8526,25.1
271.8945,269.3
272.0204,528.6
272.0319,23.9
272.0435,42.9
272.0803,209.2
272.1213,21.4
272.1654,121
272.2181,321.7
272.273,550
272.3949,794.4
272.4948,230.3
272.5473,120.1
272.5717,19.3
272.6352,187.5
272.659,570.6
272.6704,578
272.7947,3416.7
272.8242,66.5
272.8305,183.5
272.8501,216.4
272.8548,19.3
272.8768,690.8
272.9445,651.9
272.963,147.2
272.9937,617.7
273.0237,20.7
273.0321,393.2
273.0485,3614.3
273.0756,586.9
273.1108,25.3
273.1676,298.6
273.3509,336.2
273.378,319.8
273.3954,391.6
273.4239,18.5
273.4969,190
273.7273,22.9
273.851,394.9
273.9004,253
273.9624,15480.5
274.0692,25
274.0922,4578.4
274.1553,286.9
274.2014,19.7
274.2484,436.4
274.2869,172.8
274.3174,375.7
274.7808,364.4
274.7919,1616.4
274.8028,97.3
274.8558,157.9
274.873,810
274.9649,486.8
274.9823,22.4
274.9939,212.5
275.0402,288.2
275.0417,344.4
275.0638,103.8
275.1414,371.2
275.2093,357.2
275.223,624.7
275.2382,676.7
275.2477,154
275.2717,567.3
275.3709,211.8
275.5303,241.3
275.6129,621.2
275.6804,666.2
275.8301,349.1
275.999,23.6
276.0032,111
276.0228,133.9
276.0451,257.3
276.06,117.6
276.0671,145.1
276.0843,69.6
276.1049,115.6
276.1504,22.8
276.1676,21.5
276.2647,158.2
276.6795,333.2
276.7055,113.7
276.7396,19.7
276.782,20.6
276.8187,114
276.8227,385.7
276.836,466.6
276.8514,275
276.8733,22.4
276.9102,109.9
276.9229,6121.7
276.9452,23.5
276.9882,245.2
277.0865,17.8
277.1525,165.6
277.1917,321.3
277.2475,751.4
277.4937,508.4
277.5964,146.6
277.6868,509.6
277.7195,118.8
277.7593,18.4
277.8118,465
277.8744,29.6
277.9345,619.8
278.0001,24.1
278.0189,364.9
278.0565,374.5
278.6059,19.4
278.847,65.2
278.8883,88.4
278.894,828.5
278.9088,290.8
278.92,1352.2
278.9871,569.6
279.0039,1147.9
279.0314,558.2
279.0364,230.6
279.0467,561.6
279.0565,35761.4
279.2058,197.1
279.3466,640.5
279.4862,23.4
279.5691,19.1
279.6166,200.9
279.6651,535.7
279.7107,19.4
279.8781,306.1
279.8909,23.3
279.9017,734.6
279.9157,902.6
279.924,649.9
279.9475,121.3
280.0135,165.2
280.0156,104.5
280.06,547.3
280.0924,1014.2
280.1466,135.3
280.1945,174.1
280.2038,314.3
280.2698,145.4
280.333,568.6
280.365,1216.5
280.3861,494.4
280.5065,782.6
280.5952,157.9
280.6451,19.6
280.7391,503.3
280.8133,57.7
280.8267,1806
280.8826,433.5
280.9462,743.7
280.9884,673.2
281.0093,3280.7
281.0513,1113.4
281.208,359.2
281.3115,22.3
281.3725,187.2
281.4048,19.1
281.5294,26.1
281.7194,393
281.7696,296.6
281.7751,195.7
281.7962,622
281.8363,364.6
281.9362,380.9
282.0146,60.9
282.0513,157.1
282.0645,238.6
282.1376,23.7
282.18,548.6
282.3341,525.2
282.5484,641.9
282.5949,194.1
282.8103,329.9
282.8236,876.9
282.8786,225.4
282.9891,199.2
283.0278,2117.2
283.2374,563.3
283.2635,24.1
283.3302,374
283.4178,368.7
283.4748,656.7
283.6493,126.6
283.702,352.7
283.8272,489
283.8828,196.4
283.8896,140.5
283.9763,414.2
283.9886,111.9
284.0042,129.1
284.0242,228.7
284.0629,98.7
284.0873,143.1
284.3349,21.5
284.378,124.3
284.45,223.6
284.5055,663.8
284.5862,227.1
284.6408,287.7
284.7163,165.2
284.7399,143.3
284.7486,370.7
284.8255,562.7
284.865,405.9
285.0052,25.3
285.0224,889.9
285.1023,371.7
285.1807,214.4
285.3891,734.9
285.8911,18.1
285.9088,354.1
285.962,18
285.9679,1133.6
285.9882,807.7
286.0197,5561.4
286.0956,39.4
286.1387,170.4
286.2772,588.5
286.2933,902.8
286.3028,762.1
286.3668,191.7
286.4988,240.5
286.5093,181.3
286.7721,1114.4
286.9518,8323.5
287.0219,580.9
287.0479,603.9
287.0552,30062.5
287.3799,21.5
287.4125,613.4
287.4532,290.1
287.5904,811.6
287.7825,776.8
287.8187,361
287.9493,212.4
287.9886,322
288.0153,123.5
288.035,143.2
288.0458,168
288.057,174.7
288.0617,341.7
288.138,547
288.1555,31767.1
288.2489,160.5
288.3758,213.4
288.4746,171.2
288.5022,584.6
288.5282,322.4
288.5576,452.5
288.5682,315.2
288.6097,298.3
288.7487,746.2
288.7689,2286.8
288.8849,200.4
288.8914,188
288.8993,835.2
288.9015,929.7
288.9029,881.5
288.9075,1698.2
288.9107,1131.2
288.9164,4043.9
288.9224,5844.5
288.9348,8372.8
288.9428,11829.7
288.9478,12574.1
288.9562,18183.9
288.9601,20388
288.9648,20708
288.9699,23032.7
288.9737,23868.2
288.9801,24598
288.9841,23666.5
288.9876,21263.5
288.9934,21283.7
289.0032,14303
289.0072,9132.2
289.0152,8776.7
289.0225,4711.6
289.0302,882.4
289.0358,394.1
289.1501,204.5
289.159,2991.7
289.1991,353.8
289.3163,26.4
289.4744,568.2
289.4957,574.9
289.5886,171.6
289.7262,756.2
289.7372,20
289.7535,18.4
289.7767,132.8
289.8011,318.4
289.9111,720.7
289.9362,3378.5
290.0452,161.5
290.1126,597.7
290.1432,345.2
290.1554,168.1
290.2692,233
290.3229,294.3
290.357,137.8
290.3628,243.6
290.4452,473.8
290.5413,179.1
290.6372,359.5
290.6423,417.6
290.7189,181.6
290.7254,150.1
290.7972,158.8
290.8344,202.4
290.8452,257.1
290.8896,275
290.9334,264.7
291.0266,4925.7
291.0848,163.8
291.1406,512.6
291.213,598.1
291.2193,136.4
291.2784,648.5
291.3175,281.3
291.3977,372.7
291.4266,21.2
291.5117,164.6
291.7203,223.8
291.7516,149.8
291.8093,169.3
291.9527,512.3
292.1033,1070.3
292.1241,197.4
292.4421,21
292.4593,319.7
292.5754,154.1
292.6475,111.4
292.7917,278.2
292.8355,24.3
292.8449,478.5
292.8971,2113.4
293.0049,597.1
293.0386,22.5
293.0723,2925.1
293.0981,246268.9
293.2551,347.9
293.438,367.9
293.4486,802.1
293.541,168.9
293.7478,428.6
293.7923,20.5
293.8574,853.3
293.9635,466.3
293.9676,372.5
294.1015,21574.8
294.1994,241.5
294.4799,323.1
294.6824,711.1
294.7932,270.7
294.828,21.4
294.8672,1009.1
294.8837,24
294.9901,545.3
295.0196,571.7
295.0307,2477.6
295.1034,235.7
295.1945,13723.7
295.2481,19.8
295.4261,353.6
295.6382,582.6
295.7982,319.3
295.8948,24.3
295.9936,20.5
296.0098,1143.7
296.066,429.6
296.0744,213.1
296.1041,716.8
296.1906,594.5
296.2966,569.1
296.334,22
296.3691,125.8
296.6168,139
296.6364,17.6
296.6737,804.5
296.7171,395.5
296.8018,911
296.8571,21.9
296.8659,423.4
296.9323,481.4
296.9872,54.5
297.0467,25.6
297.2526,733.9
297.3845,20.5
297.3933,20.5
297.5245,709.1
297.5345,18.2
297.5648,22.9
297.7785,20.9
297.7876,652.6
297.8274,121.3
297.9661,174.2
297.9807,20.2
298.0248,1363.2
298.0423,10185.8
298.1103,73.4
298.1571,242.3
298.3257,652.6
298.4792,758.8
298.5281,168.7
298.755,140.8
298.798,491.4
298.8176,231
298.8242,58.4
298.8301,660.5
299.0225,2360.9
299.0381,229.6
299.0455,371.5
299.0618,81.8
299.0815,425.8
299.1183,199.4
299.1392,2141.6
299.151,507.8
299.1984,157.6
299.2228,20.6
299.2296,184.2
299.2484,368
299.2875,417.8
299.5076,641.1
299.7306,207.8
299.825,914.7
299.8535,24
300.0041,1241.1
300.0192,149
300.0352,1201.7
300.0557,715.9
300.0753,274.2
300.182,509.6
300.1959,151.6
300.6117,641
300.8194,141.8
300.9593,288.5
301.0121,88.2
301.0183,165.5
301.0384,23707
301.051,20.7
301.1409,407.6
301.2122,1036.4
301.2183,734.3
301.3619,570
301.4776,18.2
301.7258,219.1
301.7507,335
301.7552,190
301.757,141
301.82,41.2
301.8324,239.3
301.9547,612.9
301.9938,7160.1
302.019,303.9
302.0279,132.7
302.0519,575.3
302.0639,2483.5
302.0723,19
302.1815,491.2
302.2163,248.1
302.2243,604.5
302.7018,662
302.7441,1064.7
302.8201,523.7
302.8293,1318.8
302.8542,18.8
302.9257,1102.9
302.9472,568.6
303.0671,219
303.0748,1371.8
303.1887,21.8
303.2666,136.7
303.4038,387.8
303.7789,19
303.9135,321.2
303.9427,217.8
303.9495,354.4
303.9856,430.5
303.9928,190.9
304.0297,25.9
304.0596,57.5
304.0708,20.5
304.0917,1150.8
304.2471,159.6
304.4298,225.6
304.6002,857.8
304.6658,367.1
304.7435,351.6
304.7852,20
304.8136,168
304.8203,805.3
304.834,301.1
304.8944,27.6
304.905,40.5
304.9329,249.8
304.9741,475.7
305.1908,278.1
305.2144,261.4
305.2326,601.2
305.3866,364.9
305.4618,340.1
305.5578,190.2
305.7453,354.6
305.9234,298.3
305.9548,163.5
305.9822,23.1
306.0083,179.3
306.0877,161
306.0952,29.5
306.1164,354.6
306.1801,446.1
306.2169,223.3
306.2246,666.2
306.3011,153.6
306.5938,206.1
306.6194,872.8
306.7679,499.3
306.8133,20.1
306.8414,36.4
306.8947,196.3
306.9576,1016.9
306.9769,341.5
307.0105,747.2
307.0456,232.7
307.0786,130
307.1107,642.4
307.1316,229.7
307.3287,598.7
307.3962,387.8
307.4895,252.1
307.5098,398.3
307.6515,146.3
307.8037,112.9
307.8187,672.6
307.9338,221.7
308.0075,401.5
308.0165,430.7
308.0399,200.3
308.1947,323.3
308.3257,347.2
308.4313,344
308.4953,326.4
308.5451,284.3
308.5911,130
308.6306,22.2
308.6758,137.9
308.7719,19.5
308.808,471.6
308.8789,2562.5
308.9727,22.4
308.9942,416.7
309.006,50.4
309.0375,2937.1
309.1206,161.4
309.1514,170.4
309.1647,339.3
309.1783,150.3
309.3773,20.9
309.4646,214.2
309.4978,546
309.529,666.7
309.6355,333.3
309.8509,652.9
310.0204,53.7
310.033,20.3
310.0435,760.6
310.1176,170.6
310.3744,194.2
310.4725,18.1
310.8038,93.2
310.8595,147.8
310.8761,933.1
311.0031,57.1
311.0107,545.7
311.0788,258.6
311.1315,788.6
311.1423,158.7
311.1577,678.9
311.1669,679
311.3229,244.5
311.4584,648.9
311.5082,299.3
311.5163,25.9
311.556,236.7
311.6319,467.5
311.6902,356.7
311.7134,195.8
311.815,158.7
311.843,219.3
311.9989,155.5
312.0194,232.6
312.0291,272.2
312.0406,403.5
312.0585,24.7
312.0667,561.3
312.0935,192.4
312.1705,21
312.1998,745.2
312.5079,383.5
312.5261,411
312.582,314.3
312.7931,18.5
312.8032,23.9
312.8168,28.6
312.8385,21.2
312.865,286.4
312.8947,557.8
313.0176,207.6
313.0679,536.4
313.1783,136.4
313.1915,408.2
313.2739,53520.6
313.2935,170
313.3814,574
313.4344,17.7
313.9473,809.6
313.9993,1444.2
314.0145,5519.7
314.0908,63.4
314.0955,758.8
314.1129,19.5
314.1276,330.9
314.1429,583.5
314.1833,274.8
314.2517,516.7
314.2606,143.7
314.2771,6948.9
314.4829,760.5
314.5867,19.2
314.6421,476.4
314.684,171.5
314.798,391
314.8368,4654.6
314.8501,21.8
314.8744,23.9
314.9988,5182.5
315.0048,2331.3
315.0127,432.9
315.018,551.6
315.0425,306.7
315.0552,5986.1
315.0597,2591
315.0659,13508.2
315.0695,18705.6
315.08,8645536
315.0878,22950.2
315.0899,12642
315.0922,9893
315.0943,7828.2
315.0963,5523.8
315.0985,3720.6
315.1002,3161
315.1087,563.1
315.1166,634.3
315.1309,409.1
315.1611,3966.2
315.1889,563.2
315.2606,473.7
315.2887,160.9
315.3236,7344.7
315.5118,163.8
315.5386,143.5
315.6019,131.5
315.6244,701.3
315.6647,352.2
315.7158,538.3
315.7985,25.7
315.8289,23.5
315.8522,192.7
315.9439,76.4
315.9634,597.7
315.9795,651.9
316.0105,179.7
316.0522,20.7
316.0691,141.4
316.0774,50010.4
316.0833,887862.8
316.0947,18.5
316.3843,247.8
316.589,435.9
316.7694,198.9
316.7968,160.7
316.9019,237.9
316.9862,1317.2
317.0655,332.3
317.0697,252.3
317.0839,99934.6
317.4021,317.7
317.4668,576.4
317.5234,582.7
317.5815,357.4
317.7923,126.7
317.8221,158.8
317.8334,22.2
317.9936,303.8
318.0874,8374.2
318.205,162.3
318.4203,159.4
318.6035,373.8
318.6293,452.7
318.6423,393.7
318.765,617.1
318.7923,1586.1
318.8031,1894.7
318.828,390.3
318.8516,22
318.9149,22.5
319.1607,807.9
319.1946,34079
319.4692,254.4
319.5587,302
319.569,173.5
319.5918,252.6
319.6343,23.7
319.7928,28.8
319.7959,21.5
319.9113,403
319.9361,22.1
319.9855,545.6
320.0741,84.4
320.1981,1371.3
320.2585,2753.2
320.2961,16.4
320.369,397.4
320.5051,403.3
320.7325,305
320.7879,429
320.7929,89.5
320.8001,505
320.8131,657.2
320.8299,56.1
320.922,24.9
320.9495,771.1
320.9704,138.5
320.9792,565.6
321.19,21.6
321.2008,425.5
321.2102,25959.8
321.2619,283.8
321.542,322.3
321.5631,190.3
321.7352,636
321.8164,91.1
321.8338,377.4
321.8911,221.8
322.0087,66.1
322.2131,671.7
322.3405,305.6
322.4451,219.2
322.5018,355.6
322.5522,366.9
322.6021,498.4
322.7953,151.6
322.8234,22.5
322.9147,168.9
322.9315,435.6
322.9818,18
323.0204,14399
323.0301,178.2
323.2264,831.3
323.4418,213.4
323.5963,171.4
323.8254,23
323.9611,623.6
324.0016,6591
324.0678,682.5
324.3391,399.7
324.4267,425.9
324.6165,639.4
324.6888,7255.2
324.7125,321
324.7332,717.6
324.853,1498.1
325.0026,1097.2
325.0681,287.8
325.0768,496.7
325.1597,1186.9
325.2676,21
325.4487,229.2
325.6021,368.9
325.6497,549.5
325.6848,272
325.9629,226.1
326.0041,39.9
326.0577,439.3
326.0827,164
326.3258,139.7
326.3665,21.9
326.4174,243.9
326.4857,233.2
326.6285,247
326.6975,705.8
326.7354,18.4
326.7465,116.5
326.7915,557.4
326.85,1853.6
326.9679,283
327.0156,5650.1
327.0339,422.2
327.0519,2656.7
327.06,291.1
327.2273,4483.8
327.3827,250
327.3954,203.4
327.4011,367.6
327.4899,336.1
327.6879,451.3
327.703,325.9
327.9066,254.3
328.03,381
328.0439,153.7
328.1545,642.8
328.1845,379.1
328.4664,173.1
328.4824,1158.9
328.4899,24.8
328.4985,500.4
328.5044,713.3
328.5807,319.7
328.6383,19.8
328.6981,138.9
328.7329,572.6
328.796,156.5
328.8142,112.1
329.0191,18.5
329.0834,231.3
329.0957,1366.5
329.1426,153.3
329.3158,723.3
329.4126,378
329.4374,503.1
329.5042,198.1
329.6443,135.8
329.6559,659.4
329.6694,767.3
329.7986,162.5
329.9074,755.9
329.9603,22.1
330.0587,121.3
330.4831,172.6
330.5074,476.6
330.6159,155.7
330.6683,19.3
330.7021,642.6
330.7261,351.1
330.8532,377
330.9454,18.7
330.9533,17.8
330.976,153.6
331.0199,2150.9
331.0452,72805.4
331.054,1267649
331.1009,343.2
331.1227,19.6
331.2344,20.3
331.2984,19.7
331.3054,743
331.7803,181.9
331.8009,175.4
331.8377,26.3
331.9221,240.7
332.048,1094
332.0573,113346.6
332.2123,18.8
332.4685,20
332.4868,500
332.6203,678.2
332.8083,172.8
332.8623,546.2
332.9608,821.3
333.0521,75893.1
333.0579,13046.5
333.1518,1200.9
333.2198,18.7
333.4242,718.7
333.8163,29.9
333.9188,155.5
333.9731,106.1
334.0555,5054
334.0608,184.7
334.2059,166.9
334.2265,696.7
334.7758,703
334.8365,67.1
334.9324,253.4
334.9732,106.7
335.0046,705.6
335.0173,20.5
335.0372,159.8
335.0509,925.7
335.0761,144.1
335.1376,519.5
335.167,5199.8
335.2554,550.5
335.3619,207.4
335.3774,294.8
335.4426,20.2
335.5829,250.3
335.8324,183.3
335.9585,24.1
336.0086,647.6
336.1707,268.6
336.5583,238.5
337.0361,13761.6
337.0496,15198.5
337.062,509740.4
337.0926,359.2
337.1828,3001.9
337.2739,10779.2
337.5111,389.1
337.769,18.9
337.8436,329.9
337.8755,117.7
338.0114,152.2
338.0387,304.5
338.0653,45480.8
338.145,641
338.176,375.4
338.1873,420.8
338.2033,22.9
338.28,116.1
338.4789,147
338.5761,355.5
338.5796,468.4
338.651,125
338.6685,569.5
338.7079,177.5
338.7852,465.7
338.8487,755.4
338.9402,22.4
339.0472,214.2
339.0656,2746.7
339.0865,298.3
339.1983,247.9
339.2448,121.1
339.2498,1101.7
339.2815,164.9
339.2894,7620.6
339.3352,19.9
339.5247,19.1
339.6882,147.1
339.8069,210.7
339.9662,357.5
339.9757,765
340.0731,21.7
340.2916,306.4
340.3854,132.7
340.7288,654.8
340.7598,19.7
340.9107,22.4
340.9335,446.7
340.9879,365.6
341.018,416.8
341.0468,272.2
341.1892,657.6
341.2986,173.4
341.3053,5059.1
341.4164,245
341.6869,304.8
341.7981,128.3
341.8116,18.1
341.8198,489.4
342.0149,1213.3
342.0649,715.6
342.1756,598.7
342.3082,1187.5
342.8228,423.5
342.8314,134
342.8867,292
342.9483,241.2
342.9893,1298.7
343.0628,327.3
343.1309,19.5
343.1945,7428.8
343.2007,713.8
343.2248,187.8
343.3125,352.9
343.3788,238
343.7089,431
343.8587,383.9
343.8699,258.3
343.9886,349.1
344.0136,20.6
344.198,561.6
344.2865,432.9
344.4124,205.6
344.5324,348
344.5772,166.9
344.5904,24
344.7359,343.9
344.7596,168.2
344.8209,602.5
344.8913,18.4
344.9952,19.9
345.1588,477.7
345.1896,19
345.2106,1538.5
345.3538,20.9
345.4315,594.2
345.5796,320.9
345.6793,380.9
345.7243,641.8
345.8042,263.8
345.8174,22.7
345.8412,150.2
345.8531,20.5
345.9414,337.5
345.9837,49093.2
346.0095,60.3
346.0212,174.4
346.0407,142.2
346.2282,218.8
346.2877,362.3
346.3169,17.5
346.7871,728
346.8826,23
346.9501,26.5
346.9873,2524.5
347.0177,546.1
347.0465,209.9
347.4866,19
347.6214,228.8
347.6547,191.4
347.7233,346.9
347.8472,218.7
347.9816,188.8
348.5083,432.3
348.595,151.3
348.6846,365
348.8421,492.1
348.9665,393.1
348.9876,294.5
348.9988,164.8
349.0177,584.3
349.0602,257.3
349.1167,180.6
349.161,627.7
349.3882,551.6
349.4529,166.9
349.5336,126.2
349.5863,132.7
349.7322,428
349.814,541.4
349.9684,624.6
350.0191,719.4
350.2214,23
350.3465,211
350.4397,176.2
350.5428,585.2
350.5938,226.4
350.6407,165
350.7398,416.7
350.7885,20.8
350.9558,133.9
350.9735,649.6
351.2199,172.4
351.2697,246.3
351.2894,278.5
351.3533,132.8
351.3622,20.6
351.4523,400.1
351.5103,144.1
351.8899,203.1
351.9469,607.3
351.9638,1013.5
352.0581,386.4
352.1513,401.4
352.1649,19.5
352.1843,257.8
352.2511,444.7
352.3317,130.4
352.4112,526.1
352.4856,763
352.7651,21.3
352.8338,253.8
352.8621,19.8
353.0271,128433.8
353.036,257936.5
353.246,342.6
353.2805,466.9
353.3419,199.7
353.3501,551.9
353.4657,662.2
353.6523,215.2
353.6978,521
353.7802,610.7
354.0302,10662.1
354.0393,22407.3
354.0797,429.3
354.1618,18.1
354.4077,157
354.4828,226.6
354.6881,180.1
354.7375,669.8
354.8946,1129.5
354.9256,230.1
354.9356,125.9
355.0115,469
355.0342,16179.6
355.0624,594.7
355.07,1949.6
355.229,18.4
355.3755,928.5
355.599,368.6
355.6264,134.7
355.7153,386.4
355.7398,182.7
355.802,43.7
355.91,545.8
355.9374,426.4
356.0481,385.8
356.0693,490
356.2209,19.2
356.2956,557.4
356.4012,545.3
356.4421,651.8
356.4742,544
356.6504,145.8
356.7101,20.5
356.8593,185.1
356.9626,1044
357.0083,282
357.0671,132.2
357.0964,260.2
357.1611,18.6
357.1761,210
357.2176,25
357.3815,205.7
357.4665,505.3
357.4924,143.8
357.671,376.4
357.6806,1465.3
357.6915,521.6
357.891,313.1
357.9772,984.1
358.0126,35.3
358.0241,1005.9
358.1866,493.9
358.2886,370.1
358.3009,21.1
358.4838,771.1
358.7184,169.7
358.9307,407.3
358.9403,116.1
358.9629,799.5
359.007,574.9
359.0314,13948
359.044,381904.3
359.1188,171.1
359.1673,452.1
359.2311,131.1
359.3122,458.6
359.3443,751.2
359.3556,488.8
359.366,19.6
359.398,369.6
359.4113,151.4
359.4416,681.3
359.4438,730
359.4593,143.3
359.4648,181.3
359.4718,225.6
359.4889,168.4
359.501,489.2
359.5112,468.6
359.539,190.4
359.5777,164
359.6219,497.5
359.7726,322.5
359.8668,240.7
359.88,702.8
359.9622,304.9
360.0473,32567.5
360.1913,789.6
360.2684,554.2
360.3232,75.4
360.5138,280.5
360.5615,319.2
360.8367,456.6
361.0135,483
361.02,1778.7
361.0303,455
361.0483,966.9
361.1204,414.8
361.2061,271
361.2732,369.4
361.4484,600.8
361.5405,230.8
361.6829,127.3
361.9577,15538.6
362.0037,458.4
362.0358,364.8
362.0681,563.9
362.0858,20.1
362.1241,286.4
362.3001,583.6
362.3701,216.3
362.3791,640.9
362.4703,19.1
362.7516,555.7
362.7678,689.3
362.8194,301.6
362.8771,241.3
362.9265,1762.8
363.0974,427.8
363.1584,241.7
363.2439,164.4
363.3068,149.5
363.3566,272.1
363.3816,227.8
363.4679,568.5
363.5289,470.1
363.5548,1062.3
363.6023,900.3
363.7895,62.7
363.8262,55.5
363.8756,247.2
363.8989,284.5
363.9554,628.2
363.9967,359.6
364.0474,490.3
364.1142,517.4
364.5692,138.4
364.58,564.9
364.6127,417.4
364.6619,166.1
364.6943,566.9
365.0236,114.2
365.1054,211.7
365.1389,415.2
365.2934,160.9
365.523,383.9
365.5412,259.4
365.7758,130.7
365.9732,564.1
365.986,107.7
366.0922,353.3
366.1162,146.2
366.2869,523.9
366.4026,469.4
366.4794,19.5
366.7848,150.3
366.8152,265.1
367.0879,720
367.1216,1999.8
367.1952,195.7
367.2193,121.2
367.3503,773.3
367.4994,348.9
367.6281,697.3
367.7923,128.8
367.8276,22.8
367.8957,20.8
367.9917,664.8
368.0404,592.4
368.0509,344.6
368.1987,683.3
368.2752,139.5
368.3884,466.4
368.4273,185.8
368.6759,212.8
368.7341,174.1
368.7493,149.9
368.8105,439.2
368.8721,1268.4
368.9659,18.7
368.9919,3890.8
369.0009,16001.4
369.0098,10402.9
369.0424,648.3
369.1733,154.3
369.3518,70.5
369.4181,514.1
369.628,507.8
369.9504,135.7
369.9761,551
370.0027,352.7
370.6062,20.7
370.6243,573.4
370.9507,461.8
370.9997,547.5
371.1012,64.4
371.1098,145.9
371.2327,201.2
371.2384,301.7
371.3425,450
371.368,18.9
371.5267,21.2
371.5683,632.7
371.8589,378.4
371.9826,24
372.058,370.2
372.1676,19.1
372.3577,303
372.5357,455.4
372.5642,679
372.6019,275.4
372.7071,18.7
372.8549,267.2
373.007,23.7
373.0398,104.5
373.4711,508.7
373.8119,92.5
373.8285,655
373.908,135.1
373.9498,135.1
374.1076,196.8
374.2065,555.9
374.2258,430.3
374.3222,153.5
374.4124,245.5
374.4241,684.1
374.779,819.3
374.8527,19
374.9117,127.1
374.9576,1232.9
374.9965,455.7
375.009,149286.3
375.0179,126901.9
375.0568,559.6
375.1286,181.8
375.1986,627.5
375.2241,136.4
375.422,604.7
375.6885,164.2
375.7987,19.2
375.9649,154.9
375.9939,19.9
376.0122,9646.7
376.0212,11454
376.1596,346.3
376.237,113.2
376.2876,1159.2
376.543,389.6
376.5607,244.9
376.6512,448.6
376.7968,18.1
376.8357,56.7
376.8632,228.7
376.8796,176.4
376.9936,636.9
377.0162,6823.2
377.0288,323
377.432,150.3
377.8052,25.2
377.8947,171
377.9317,1361.6
377.9529,169.8
378.1429,381.7
378.1555,191.1
378.2585,154.8
378.2952,532.9
378.3344,114.2
378.3901,112.2
378.5752,19
378.6545,137
378.6767,21
378.7079,379.3
378.7225,157.5
378.9868,267.6
379.0538,399
379.1297,427.1
379.1954,163.3
379.2145,355.1
379.2844,225.5
379.3389,120.1
379.6589,256.7
379.6762,19.8
379.7663,168.5
379.94,220.3
379.9795,581.7
380.1041,569.6
380.4931,360.5
380.5182,17.8
380.8301,192.1
380.9293,141.1
381.0134,29452.5
381.0259,240223.5
381.0808,165.2
381.1464,255.7
381.1977,450
381.2801,465.8
381.3038,544.3
381.3596,23.5
381.6603,20.9
381.9407,415.6
382.0138,375.4
382.0292,22066.6
382.0778,132.1
382.1186,158.8
382.1308,21.6
382.6477,390.4
382.6735,241.2
382.7409,413.2
382.7678,587.3
382.8585,245.8
382.9125,147
382.957,168.9
383.1162,150309.4
383.1728,165.2
383.272,130.3
383.5781,152.9
383.5819,147.2
383.8068,556.9
383.9653,624.3
383.9837,230.2
384.0905,18.7
384.1195,18511.3
384.1624,173.7
384.1913,426.6
384.2019,429.2
384.2765,524.4
384.5233,237.4
384.6161,241.5
384.8081,404.2
384.9726,399.4
385.0358,726.2
385.1205,1175.5
385.1376,153.4
385.222,18.1
385.2562,612.6
385.286,415.8
385.3156,186
385.5606,199.5
385.6902,713.5
385.7983,692.6
385.9442,46.6
385.979,8583.9
386.0501,346.4
386.304,341.2
386.5455,282.4
386.8268,697.8
386.9814,412.2
387.0029,1409.1
387.3865,17.9
387.4702,138.1
387.531,381.2
387.6824,213.5
387.822,503.5
387.9781,1038.6
388.0572,110
388.0756,852.6
388.1631,228.9
388.1869,766.4
388.4353,498.7
388.7307,781
389.0208,123.6
389.1385,726.1
389.1693,136.2
389.1918,168.1
389.5287,481.7
389.8067,31.3
389.8632,21.5
389.9203,20.8
389.9734,39065
390.1295,129.7
390.2633,189.5
390.282,18.2
390.4565,21.7
390.5097,730.1
390.6742,20.9
390.7816,21.6
390.7981,850.6
390.852,170
390.8752,412.8
390.9193,188.4
390.9257,325.9
390.944,275.5
390.9507,411.5
390.9741,13818.8
390.9828,32256
390.9918,17744.3
391.0856,343.7
391.1163,17.4
391.1512,412
391.1618,128.5
391.1695,318.6
391.356,355
391.3666,303.7
391.5328,297.7
391.5514,20.2
391.7104,384.7
391.9772,569.9
391.9911,373.1
392.0024,368.1
392.0131,179.6
392.0693,568.7
392.2622,21.1
392.6178,132.8
392.7265,516
392.7956,937.3
392.9387,20.3
392.9451,437.3
392.967,152.1
392.9813,1613.2
393.1998,220.9
393.2838,359.5
393.3548,603.7
393.5367,430.5
393.6368,242.3
393.6578,18.9
393.6876,159.3
394.0822,142.5
394.1308,19.9
394.1379,21.6
394.2307,716.7
394.3981,314.4
394.9429,18.9
395.2531,432.1
395.275,127.5
395.381,146.5
395.5162,21.4
395.5548,570.7
395.5803,124.1
395.662,392.3
395.7088,125.2
395.7287,734.2
395.8316,27.3
396.0156,517
396.0984,229
396.2489,20.5
396.3725,20.9
396.3902,178.4
396.4818,138.7
396.5634,239.3
396.5886,301.6
396.6018,255.8
396.6394,218.5
396.7448,359.9
396.7919,665.3
396.8152,528
396.881,19.4
396.991,195856.1
396.9998,88014.2
397.3396,219.2
397.6051,159.9
397.6575,198.3
397.7725,128.5
397.8128,629.4
397.8803,571.3
397.9339,143.5
397.9942,16972.3
398.0032,3032.3
398.0252,194.7
398.0578,180.5
398.1501,917.6
398.2011,139.5
398.2184,175.2
398.2403,1211.6
398.2685,1058.6
398.3513,241.6
398.524,561.5
398.6404,556.6
398.7412,1388
398.7761,380
398.9975,689.4
399.3858,156.5
399.5684,166.6
399.8286,19.2
399.9905,434.5
400.0018,456.2
400.0729,721.1
400.0982,17.8
400.1639,974.6
400.185,130.2
400.3176,17.6
400.4005,297.5
400.4278,155.9
400.7222,416.1
400.7981,31.5
400.942,20.5
400.9717,238.4
400.9832,625.3
400.9907,495.2
401.1528,646.9
401.207,19.2
401.2397,222.6
401.5359,376.3
401.6439,137.7
401.8339,18.9
401.9399,21.7
401.9528,1815.1
401.9845,21
402.0442,162.4
402.3154,129.5
402.3642,273.1
402.3838,457.3
402.5779,18
402.9949,384.2
403.0078,320407.2
403.1975,481.3
403.2212,221.8
403.2433,315.1
403.3659,598.9
403.3743,24.9
403.3971,499.1
403.6058,161.8
403.753,753.1
403.7779,166.1
403.8229,24.6
403.9419,1763.8
403.9522,316.6
404.0111,27027.8
404.2338,200.5
404.3067,17.7
404.3598,437.9
404.4126,616.9
404.422,305.1
404.6054,329.3
404.7396,381.4
404.7935,41.7
404.8011,362
404.8146,316
404.8307,662.1
405.0113,1847.3
405.0337,141.8
405.3875,258
405.6614,639.5
405.7755,180
405.8273,549
405.9323,22.2
405.9473,34295.9
406.0578,231.2
406.1694,449.5
406.3292,779.6
406.39,143.5
406.5883,393.8
406.7554,215.7
406.773,532
406.951,1219
407.2825,156.4
407.3323,110.6
407.3727,131.6
407.4595,170.9
407.4753,23.4
407.5157,19.2
407.5452,138.8
407.7916,149.4
407.8076,18.5
407.8173,433.2
407.937,199.3
407.9446,341.4
407.9555,598.3
408.0657,16.9
408.1845,186
408.2153,133.1
408.4187,405.5
408.4995,22.9
408.5394,164.8
408.5626,163.7
408.627,385.8
408.658,459.1
408.7019,208.8
408.7408,183.6
408.7695,1745.1
408.8212,252.2
408.9565,177.3
408.9844,2112.9
409.159,213.5
409.2041,156.4
409.4297,345.1
409.4481,460.7
409.5115,879.3
409.5211,561.9
409.6709,355.3
409.8154,151
409.8292,356.7
409.9758,24.5
410.4117,136.1
410.73,346.3
410.8431,132
410.8574,1274.7
410.9085,685.2
410.9675,343.2
411.1088,16.8
411.2313,523.3
411.3466,226.1
411.5592,470.1
411.6273,499.8
411.6712,267.9
411.6852,573.4
411.8136,315.2
411.9433,25.8
412.237,142.1
412.2548,22.4
412.2882,201.7
412.3001,201.8
412.3209,3037.2
412.5082,430.2
412.5216,399.2
412.7836,346.3
412.8011,346.5
412.9644,51361.8
412.9736,18310.9
413.1286,418.3
413.2479,168.1
413.2664,1742.6
413.3245,407.3
413.4957,188.7
413.5349,20.2
413.6487,409
413.9394,378.2
413.9664,481.6
414.1487,18
414.2698,1232.2
414.3289,23.8
414.4279,316.1
414.7167,449.4
414.9332,613.2
414.9531,167.3
414.9629,2625.3
414.9976,3043.7
415.0368,222.2
415.0545,506.6
415.0914,363.6
415.3511,20.9
415.5064,395.6
415.5995,147.9
415.6136,536.9
415.6871,535.5
415.949,22.2
416.1352,5931.8
416.1933,381.7
416.2141,49091.7
416.3158,362
416.4808,584.9
416.508,737.1
416.7131,428.7
416.739,545.7
416.7944,181.7
416.9965,554.1
417.0333,20.4
417.0845,191.2
417.2176,3001
417.2636,293.4
417.2892,164.9
417.3937,18.8
417.4117,18.1
417.4782,620.2
417.5449,169.4
417.6882,19.8
417.778,344.2
417.863,676.2
418.0182,173.7
418.066,365.8
418.4843,385.6
418.5624,593
418.5841,683.1
418.6135,141.4
418.6552,115
418.7074,142
418.738,584.4
418.8092,201.7
418.9148,193.3
418.9599,120.7
418.9817,132226.7
418.9954,20.5
419.011,162.7
419.1251,403.8
419.223,189.2
419.2556,1380.2
419.6015,306.7
419.7572,1069.7
419.9464,424.6
419.985,5318.8
419.999,29.6
420.0261,23.2
420.089,114.7
420.3103,19.8
420.6034,19.5
420.6413,158.4
420.7017,164.8
420.7299,22.3
420.8691,161.1
420.8854,837.3
420.9577,553.4
420.9796,4255.2
421.0127,211.4
421.303,274.7
421.318,141.8
421.4858,147.9
421.6794,625.9
421.7785,21.3
421.833,319
421.9213,14816.9
422.1158,593.4
422.1781,127.2
422.2608,665.3
422.3037,21.1
422.443,191.7
422.4973,256.7
422.7653,262.5
422.8326,106.9
423.0591,773.6
423.3929,690.6
423.8362,161.4
423.8952,683.4
423.9173,157.4
424.1103,571.8
424.1501,439.9
424.1588,519.9
424.2608,338.8
424.3419,19.5
424.3505,443
424.5506,162.5
424.5629,536.7
424.6819,221.2
424.7018,174.6
424.9411,147.9
425.001,395.6
425.307,22.2
425.6253,630.3
425.6752,184.8
425.6964,536.5
425.7229,380
425.7775,181.7
425.8269,246.2
425.9303,20.2
425.9409,729.2
425.9687,167.6
426.0272,687.5
426.1267,171.7
426.2063,127.8
426.8309,672.8
426.9271,396.2
426.9414,74.6
427.5399,288.4
427.8338,871.3
427.8479,19
428.3091,706.5
428.3531,192.2
428.3624,142.7
428.4685,597.3
428.6209,19.3
428.7764,137.2
428.85,35.3
428.9376,12875.4
429.0315,314.5
429.0398,730.7
429.0612,943.6
429.0706,369.6
429.0886,1316.5
429.125,18.4
429.1382,22.3
429.2394,608.5
429.2605,167.4
429.2797,230.3
429.4452,239.9
429.6175,20.1
429.7571,130.4
429.8027,163.9
429.8868,200.7
429.94,429.9
430.0879,254.5
430.1584,135
430.3168,19.5
430.3479,559.4
430.356,495.3
430.8528,473.7
430.9136,1010.4
431.0473,355.7
431.0858,107.2
431.217,4090.2
431.3808,527.5
431.438,144.2
431.4483,320.6
431.5832,583.9
431.6443,366.3
431.8774,324.6
431.9358,149.5
431.9494,93.2
432.0238,257
432.1316,200.7
432.407,556.3
432.6281,530.4
432.7823,511.7
432.7916,153.5
432.8247,23.8
432.8554,21.9
432.8884,354.8
432.9399,26.1
433.1191,576.8
433.1658,170.8
433.2035,193.3
433.2499,84.1
433.8269,18.4
433.8695,403.1
433.8868,21.1
434.0115,558.7
434.0451,141.5
434.1881,124.9
434.2731,508.2
434.4365,25
434.5129,486.1
434.9557,26334.9
435.2088,19.9
435.2966,352.5
435.4626,19.5
435.5368,633.6
435.7091,233.6
435.7268,18.9
435.8495,52.7
435.9594,1346.2
435.9714,592.8
436.3774,443.9
436.3914,912.6
436.8472,23.2
436.9417,428.4
436.9537,1734.7
437.1498,655.6
437.2037,652.7
437.2611,138.8
437.8012,623.9
438.0205,395.2
438.0458,619.4
438.1972,734
438.2763,239.3
438.5508,18.7
438.838,437.4
438.8616,489.2
438.972,2723.8
438.9847,3639.7
439.0185,128.9
439.0363,140
439.5077,381.2
439.671,400.2
439.8377,22.3
439.9863,172.9
439.9993,234.8
440.1727,244.7
440.425,776.7
440.4342,164.2
440.9682,718.4
441.0281,330.9
441.2977,176.7
441.3221,152
441.6111,567.9
441.9094,211.1
441.9648,233.4
442.0252,597.1
442.373,522.7
442.5082,157.1
442.554,19.7
442.9823,431.1
443.1539,19.7
443.1738,399.9
443.2612,667.9
443.2882,345.8
443.517,18.6
443.5695,198.2
443.8396,22.1
443.9173,193.9
443.972,68
443.9919,370.3
444.0389,19.7
444.0659,805.5
444.2408,304.4
444.505,181
444.5779,154.6
444.6899,697.1
444.6943,672.9
444.9119,373.7
445.2317,1483.8
445.2516,508.1
445.2824,271
445.4852,277.3
445.7377,210.8
445.861,20.7
446.1795,349.9
446.2866,627
446.4696,577.1
446.4847,167.4
446.6391,472.4
446.6701,502.2
446.8881,1129.3
447.1611,264.3
447.9321,3569.5
447.9492,670.9
447.9862,626
447.9964,22
448.0317,654.1
448.0659,631.3
448.2911,163.1
448.3665,742.9
448.5509,489.6
448.6886,619.4
448.7219,848
448.805,21.4
448.8412,582
448.87,328.3
448.9324,3531.1
449.1539,2742.4
449.2373,435
449.3275,760.5
449.3711,246.3
449.5281,323.9
449.5719,162
449.6091,407.8
449.6284,529.7
449.7361,767.2
449.8153,220
449.9364,543.5
450.1576,459.5
450.2936,373.2
450.6816,665.4
450.7169,376.1
450.7536,452.4
450.8139,18.5
450.8991,141.6
450.9299,608.1
451.0293,636.2
451.0559,361.6
451.1495,162.2
451.1596,23.3
451.4507,399.5
452.0818,531
452.2196,129
452.2838,149.2
452.3353,17.5
452.4759,185.2
452.716,608
452.7589,28.2
452.8078,802.5
452.8714,27.1
452.9543,272.8
453.2466,586
453.8103,158.5
453.8291,432.8
453.8989,157
454.0737,386.9
454.1216,355
454.2765,133.1
454.4013,404.9
454.484,18.8
454.5001,622.1
454.6097,612.4
454.9496,36631.7
455.1937,563.9
455.3337,193.6
455.4298,780.9
455.4845,314.3
455.7775,23.4
455.952,540.5
456.1031,157.8
456.1549,110.3
456.2137,215.6
456.9469,6669.1
457.098,24.2
457.2327,15366.2
457.3453,380.7
457.4148,374.9
457.4247,437
457.821,20.1
457.9668,29.5
458.237,425.3
458.359,256
458.6976,376.5
458.9099,17.8
458.932,30.7
458.9609,5626
459.0545,393.5
459.2217,302.4
459.2483,520341.3
459.3756,265.3
459.5223,151.8
459.8619,396.9
459.9292,22.3
459.9445,127.4
460.2267,124.7
460.2516,105605.7
460.2829,366.5
460.4471,323.2
460.6471,337.2
460.9663,81819.4
461.2545,6364.5
461.3444,431.9
461.3546,431
461.8027,607.9
461.8303,750.8
461.8997,213.9
461.9697,4977.8
462.4215,155.9
462.5699,310.3
462.7767,23.5
462.9045,158.9
462.9634,21397.1
463.0086,326
463.0316,530.8
463.0573,20.4
463.1039,159
463.2766,726.4
463.6264,706
463.7422,317.7
463.811,680.6
463.8938,407.5
463.9055,2171.8
463.9672,1870.2
463.993,703.7
464.206,682.8
464.2592,693.4
464.2886,135.9
464.3529,487
464.4469,611.4
464.4793,238.8
464.7229,27.5
464.9784,10347.6
465.171,388.6
465.9131,369
466.0405,659.3
466.2245,261.2
466.2438,219.7
466.3064,569
466.4278,547.7
466.5084,229.5
466.6809,346.2
467.1212,611.8
467.2925,20.1
467.4212,296
467.4526,577
467.5501,134.3
467.7639,18.2
467.7734,712.1
467.9367,21.7
467.9787,168.2
468.1524,547.1
468.3086,4882.9
468.3345,313.9
468.7283,610.4
468.7729,298.2
468.9487,126.6
469.3286,47.8
469.3855,21.3
469.5942,18.8
469.6669,612.7
470.0483,452.1
470.2048,388.3
470.2509,585.8
470.3254,567
470.5032,412.2
470.549,537
470.7699,239
470.8197,19.7
470.9052,392.1
470.9233,20513
470.9951,2585.4
471.2027,616.4
471.284,917.9
471.3123,20
471.4698,377.8
471.5827,287.7
471.8112,535.4
471.8929,153.4
472.0054,242.4
472.0809,20.6
472.2024,118.1
472.2821,362.3
472.5183,256.2
472.5583,345.8
472.598,20.6
472.7201,21.9
472.7695,696
472.9208,3007.1
472.9756,233.5
472.9919,19
473.0315,1720.5
473.0611,1001.6
473.0809,383.1
473.1481,186.8
473.2058,787.1
473.264,4652.4
473.2873,361.6
473.6761,136.8
473.7809,173
474.0433,576.7
474.139,140.6
474.1751,129.2
474.2435,24.1
474.2762,774.1
474.3867,304.8
474.5619,448.2
474.6088,477.1
474.6607,21
474.7662,257.6
474.9189,165.3
475.0038,22
475.1045,19.8
475.2222,33749.2
475.2418,706.8
475.3009,177.4
475.7022,385.9
475.8846,417.2
476.2252,4690
476.2494,577.8
476.4894,582.5
476.5171,294.5
476.6727,245.3
476.9402,56738.5
477.0058,205.7
477.7254,297.1
477.876,146.8
477.9313,924.2
477.9435,4544.8
478.0123,151.7
478.1806,146
478.1903,274.4
478.2928,929.3
478.3291,56103.8
478.3624,132
478.4315,432.6
478.7887,21.2
478.8206,313.5
478.8437,546.1
478.8851,19.3
478.9375,16821.8
478.9754,696.6
479.0959,75.5
479.1507,327.3
479.3325,12095.5
479.4602,200.3
479.5089,230.2
479.6706,392.1
479.8725,195.7
479.9279,559.1
479.9406,597.1
479.9933,206.5
480.298,159.2
480.49,17.8
480.4984,22.3
480.7662,30
480.9236,144.8
480.9522,2255.2
481.048,22
481.0914,2076.4
481.2382,133.2
481.3545,718.2
481.5783,222.7
481.7297,20.3
481.8289,708.8
481.9656,559.6
482.0948,347.2
482.2695,125.4
482.3236,839.8
482.6675,152.5
482.8878,307.8
483.0865,69.3
483.2106,801.6
483.2482,171757.4
483.5453,443.1
483.5914,524.7
483.6908,125.5
483.7841,367
483.799,555.9
483.826,245.7
484.2516,35831.3
484.4327,655.1
484.6017,18.9
484.7604,184
484.7874,706.1
484.799,451.6
484.8736,114.7
484.9866,195.1
485.0034,574.2
485.0574,156
485.2639,146309.7
485.2787,150.2
485.341,160
485.8696,25.3
486.0458,334
486.0667,607
486.2529,17.5
486.2671,30177.1
486.739,146.5
486.836,224.7
486.8972,2064.3
486.9157,207.6
486.9692,1719.7
487.0016,119
487.2795,120977.5
487.6812,156.9
487.7057,813.2
487.7553,19.5
487.8546,135.8
487.873,697.3
488.1702,198.6
488.1972,149.4
488.2829,28572.3
488.5539,25.1
488.8717,739.9
488.9831,201.5
489.108,322.7
489.1695,208.5
489.1866,19.9
489.2297,368.9
489.2553,327.5
489.2858,218.3
489.3055,230.7
489.3333,252
489.3449,218.1
489.3851,211.7
489.4786,152
489.7744,19.5
489.9017,648.7
490.034,677.7
490.1845,689.9
490.2904,8648.4
490.4165,862.7
490.5132,232
490.6445,146.4
490.7767,146.6
490.8301,19.7
491.1305,19.3
491.2461,257
491.2925,682.7
491.3117,513.4
491.5484,633.2
491.5599,702.4
491.6243,302.7
491.6911,237.1
492.0514,603.6
492.0791,18
492.1721,378
492.2811,440.7
492.302,648.3
492.5739,584.4
492.6627,322.4
492.8219,294.5
492.9143,10561.9
493.0178,201.2
493.0278,202.5
493.0943,636
493.3456,146.8
493.5633,182.4
493.8156,403.8
493.9176,475.4
493.9585,987.7
493.9936,606
494.1081,428.8
494.1385,680.3
494.2649,314.2
494.3243,12384.3
494.3915,242.8
494.9113,4394
494.9665,249.3
495.2032,757.4
495.2269,259
495.3169,151.1
495.3275,773.2
495.3527,140.2
495.7528,329.6
495.8544,616.1
496.2506,532.7
496.3398,661291.9
496.3828,309.4
496.4357,294.4
496.563,679.1
496.911,484.1
496.9313,1162.3
497.3124,665.2
497.3431,162831
497.4253,297.2
497.4762,230
497.8603,21.4
498.3464,13139.4
498.4403,370.7
498.4872,227.7
498.5019,586.8
498.6621,18.8
499.0722,563
499.2222,12041.3
499.353,306
499.751,18.2
499.7997,473.6
499.9038,317.4
500.0327,138.3
500.2258,725.1
500.6811,347.3
500.875,220.8
501.0945,190
501.1398,131.8
501.2377,6577.8
501.2562,146.7
501.901,286.8
502.2408,749.2
502.2595,212.2
502.3291,24548.3
502.5428,358.1
502.6097,176
503.0365,187.4
503.1056,1237.5
503.1364,652.2
503.1643,252.8
503.2535,6382.4
503.3326,3160.3
503.5014,20.9
503.5274,513.1
503.734,261.4
503.7534,138.6
504.0778,303
504.1061,52.1
504.2566,991.8
504.3054,4305.2
504.3439,14714.9
504.7842,957.7
504.7972,147.3
505.0287,223.4
505.055,184.1
505.1057,26.2
505.1596,392.8
505.2042,348.1
505.2327,1051.4
505.3478,1833
505.5169,615.1
505.5714,136.6
505.6095,241.7
505.8904,287.4
506.0308,133.8
506.1767,404.1
506.2043,135.9
506.2638,1494.6
506.3606,8620.9
506.7102,159.5
506.7596,1153
506.8926,704.6
506.9142,521.3
507.169,518.5
507.248,31377
507.3644,1625.6
507.8873,221.8
507.9208,727.7
507.9346,164
508.2514,3758
508.3038,178.2
508.3764,2207.9
508.4317,393.9
508.7,21.2
508.7228,193.1
508.8892,1533.3
509.0043,4324.7
509.021,416
509.2178,144.5
509.264,11999.7
509.6395,227.9
509.6894,18.8
509.72,30.2
509.7662,392.1
509.7805,167.7
509.8523,252.9
509.9158,261.6
510.0743,321.2
510.267,1418.3
510.3378,254
510.3552,3572.1
510.5173,394.7
510.6122,306.7
510.714,18.6
510.8343,810.2
511.1246,37.7
511.1742,768
511.3927,569.2
511.7067,415.5
511.7284,20.6
511.7582,203.2
511.7852,630.9
511.9689,538.8
512.0958,1036.1
512.2021,225.7
512.334,650.8
512.4841,399.2
512.7124,23.4
512.7526,353.3
512.8455,17.9
512.9084,12915.2
513.623,378.2
513.7846,21.4
513.8184,632.9
513.8604,241.7
514.0673,19.2
514.1156,488.7
514.5267,774.7
514.6482,369.9
514.905,6665
515.0212,1546.1
515.0651,121.6
515.1867,257.7
515.3813,332
515.9808,205.1
516.3061,19484
516.6378,21
516.655,471
516.8971,766.5
517.0266,256.5
517.3087,735.5
517.3361,23.6
517.4512,155.9
517.5361,182.8
517.6522,407.7
517.6552,356.2
517.7973,341.8
518.0718,19.3
518.2082,734.1
518.2531,696.6
518.3218,850132.1
518.6388,406.7
518.7204,174.6
518.8494,426.5
518.925,27036.2
518.9547,315.6
519.2061,736.7
519.2093,725.7
519.2606,405.9
519.3251,209861.3
519.4708,181.4
519.9282,1814.2
520.279,636.9
520.3398,202191.1
520.6641,16.8
520.7332,173.9
520.8181,247.7
520.9219,14863.8
520.96,309.4
521.3432,50154.7
521.4228,191.3
521.4928,748.9
521.6016,123.4
521.6191,698.8
521.7241,20.3
521.8641,186.8
521.9247,385
521.9768,1512.4
522.0836,180.3
522.1001,238.1
522.2006,871
522.2456,145.8
522.2565,1968.8
522.3555,193187.7
522.6306,140.3
522.6374,160.2
522.6414,114.5
522.8509,347.9
522.8631,340
522.8949,18.9
522.9182,945.1
522.9368,4886
523.22,457.1
523.3355,342.5
523.3588,52769.9
523.7532,149.5
523.9711,119.8
524.1192,192.6
524.1385,912.8
524.1472,1002.1
524.1786,147.9
524.2487,236.3
524.371,199478.6
524.688,369.3
524.8632,636.7
525.2096,144.1
525.2699,405.3
525.3744,51149.2
525.5055,411.5
525.696,399
525.7126,391.4
525.9166,590.9
526.0944,470.3
526.3288,4256.8
526.3776,3257.1
526.4749,199.3
526.4906,20.4
526.671,364.4
526.7219,23.3
526.9498,1359.9
527.0704,156
527.2013,194.1
527.2604,459.2
527.3355,732.8
527.3758,305.5
527.5475,20
527.6572,379.7
528.1377,480.4
528.3439,1029.8
528.6987,345.7
528.7612,337.2
528.8819,6928.9
528.9318,254.1
528.9535,2839.5
529.1228,18.9
529.174,19.3
529.3178,115.4
529.3284,845.8
529.3471,583.2
529.5574,527.9
529.6164,388.7
529.6397,179
529.7752,588.3
529.8364,622.1
529.8824,513.7
530.1073,162.5
530.206,22.9
530.27,492.7
530.2864,615.9
530.3226,1009.8
530.3585,709.6
530.6977,20.9
530.7972,683
530.8126,808.6
530.8786,3712.9
530.9509,478.1
531.2202,1218.8
531.2488,1014.5
531.296,466.3
531.4993,20.7
532.2279,19.5
532.2803,6451.3
532.3377,11224.2
532.4797,222.3
532.5589,183.8
532.8821,339.9
532.9656,833.4
533.0244,638.7
533.1521,626.4
533.3403,587.2
533.3884,22.9
533.5293,390.4
533.7814,167.2
533.7928,291.4
533.9713,366.7
534.2957,313500.8
534.3165,485.2
534.5966,659.8
534.713,402.1
534.7584,219.9
534.8799,698.4
534.8988,19440.4
534.9665,716.8
535.299,77653.9
535.4344,145.2
535.755,240.4
535.9037,1266.1
535.9934,217.4
536.1227,235.3
536.2942,14982.3
536.3996,19
536.5612,420.3
536.8959,12562.7
537.0087,412.3
537.1242,247.8
537.2162,679.9
537.2971,1773.8
537.3508,360.4
537.5717,386
537.9521,549.4
538.2315,535.9
538.2851,20
538.7669,184.3
538.8923,1069.1
538.9118,1938
538.9815,1058.1
539.0567,175.5
539.1718,209.3
539.2465,606.5
539.9724,673.2
539.9885,672.6
540.3053,734.9
540.4216,855.6
540.6579,192.7
540.8981,378.9
541.1506,565.6
541.3755,465.6
541.3944,880.9
541.5423,382.4
541.9793,19.4
542.2787,20.5
542.3218,249268.9
542.5687,304.6
542.7017,234.6
542.7295,346.5
542.7927,396.2
542.981,157.1
543.1789,357.4
543.2963,436.8
543.3252,64265.8
543.4065,213.6
543.4346,622.6
543.4926,688
543.6611,179
543.8891,20.3
544.2265,522.7
544.2722,1630.7
544.3013,19.7
544.3375,254054.5
544.5849,582.2
544.6732,19
544.7294,298.1
544.7582,575
544.855,390.1
544.9072,151.4
544.9272,1209.9
544.9475,2605.5
545.005,220.2
545.0394,799.6
545.2689,502.5
545.3409,64185.6
545.4491,355.7
545.6543,167.3
545.8078,371.8
545.8744,644.7
546.1595,630.2
546.3531,243050.3
546.4869,123.6
546.6873,374.2
546.8539,400.4
547.0319,314
547.1234,171
547.3563,63425.6
547.4951,364.8
547.5183,495.1
547.5505,281.4
547.778,801.2
547.9095,270.8
547.92,148.3
548.2654,422.4
548.3113,602.7
548.3597,6150.5
548.4478,382.5
548.5681,352
548.8521,152.1
548.974,241.5
549.2236,660.4
549.3281,397.2
549.435,408.6
549.6415,845
549.8864,341.9
549.9241,745.6
550.3252,163.1
550.3874,826.2
550.5262,199
550.8729,4054.2
551.0406,21.1
551.1213,129.9
551.2397,411.2
551.4284,206.3
551.8012,324
551.9664,436.9
551.978,410.8
552.0221,339.1
552.2804,29
552.5976,417.9
552.652,667
552.8698,3392.5
552.9115,118.3
553.0162,236.5
553.1513,152.2
553.236,368.6
553.2909,336.4
553.3077,329.7
553.6549,588.2
554.6055,507.1
554.6916,136.1
554.8671,500.3
555.2142,163.7
555.2691,24.4
555.4082,366.4
555.4836,213.1
555.5258,182.1
555.5372,866
555.7456,252.7
555.8601,16.9
555.9094,544.3
555.9962,128.7
556.2736,788.7
556.4956,883.1
556.605,277.1
556.7359,430.9
556.8429,314.3
557.2769,553.6
557.6746,253.7
557.8051,353.5
558.2957,103531.3
558.6248,130.2
558.6791,321.9
558.7543,124.1
558.8418,231.8
559.0485,19.9
559.1059,577.4
559.2194,407
559.2991,21414.1
559.4354,207.7
559.8283,431.6
559.9177,357.2
560.0972,628.1
560.2142,251.9
560.2481,229.6
560.2949,2372.3
560.3114,86372.2
560.7709,534.2
560.9413,435.3
561.3148,18696.4
561.3856,521.3
561.413,1902.8
561.4479,21
561.5989,606.7
561.6325,442.5
561.9422,1128
562.3096,3268.2
562.327,75485
562.5363,21.5
562.7931,171.6
563.005,511
563.1542,586.2
563.2939,389.7
563.3302,16826.7
563.4463,19.2
564.0757,153.5
564.3258,2171
564.7808,363.1
564.8131,531.1
565.0417,947.3
565.0733,131.9
565.2875,516.5
565.4671,141.2
566.3218,45793.8
566.8514,547.6
566.9639,1438.1
567.3253,12751
567.4307,354
567.441,123.3
568.0517,412.6
568.3376,21481.6
568.3834,203.3
568.458,133.4
568.5456,605.6
568.6386,144
568.7697,472.3
568.8244,416.3
569.0209,49.5
569.3414,3751.2
569.3884,292.8
569.4503,427.8
569.5058,146.9
570.2098,331.8
570.354,601.1
570.4284,824.4
570.597,675.8
570.6528,170.8
570.673,634.4
570.6937,144.1
570.7115,514.9
570.7352,437.7
570.7558,163.9
570.8514,20.6
570.867,3299.3
571.0312,142.1
571.0582,561.8
571.2341,24.8
571.2611,429.9
571.4435,163.8
571.5428,505.9
571.6599,535.4
571.7268,265.3
571.8888,199.6
572.2956,275
572.3678,438.1
572.864,2869.4
572.98,601.1
573.0246,143.9
573.206,196.3
573.6805,295.4
573.7899,125.9
574.2646,791.9
574.2829,640.6
574.6836,584.7
574.8602,577.8
574.9758,432.9
575.0983,850.9
575.2503,723.6
575.2801,696.7
575.441,450.2
575.4751,387.9
575.5039,10439.8
575.7762,398.8
575.8259,26.2
575.9581,479.3
576.0674,390
576.1351,790.3
576.1972,631
576.267,1139.1
576.2802,8599
576.2957,25.2
576.3718,429.4
576.5931,17
576.8837,7866.2
576.9341,653
576.9431,152.4
577.0118,177.2
577.1422,545.6
577.2828,747.6
577.3014,402
577.52,1814.1
577.8003,421.3
578.0587,743.7
578.0858,407.6
578.2768,1753.2
578.3036,735.4
578.5191,619.2
578.6325,217.1
578.6903,154.7
578.805,418.1
578.8806,6016.2
579.0181,321.7
579.3925,18.9
579.7138,561
579.8835,535.9
579.9345,490.1
580.1462,358.3
580.3028,419.4
580.5105,23.3
580.6112,20.4
580.6271,363.6
580.6931,22.3
580.8777,1606.9
580.896,1998.5
580.9343,502.2
580.9867,745.5
581.0225,376.2
581.3698,693.8
581.5763,732
581.9784,214.3
582.0206,872.9
582.0519,545.9
582.1426,23.5
582.1816,719.6
582.2042,127.9
582.2422,771.6
582.2552,272.4
582.2954,15286.6
582.3346,731
582.3585,296.1
582.3736,425.3
582.4064,498.2
582.4832,382.9
582.5198,22.8
582.8213,262.9
582.8938,1015
583.1313,445.2
583.1846,646.5
583.243,846.6
583.2994,2429.6
583.3336,287.7
583.3396,384.7
583.3448,392.8
583.4172,661.5
583.7708,21.1
583.7824,251.7
583.8665,164.2
583.9409,187.7
583.9759,948.8
583.9866,287.4
583.9967,226.4
584.0157,833.1
584.0393,19.4
584.0879,200.1
584.2551,527.7
584.2683,176.8
584.3109,4551.9
584.725,477.6
584.8073,19.2
584.9138,276.5
584.932,404.3
585.1708,687.9
585.2702,2562.4
585.3146,539.6
585.4303,236.9
585.5217,171
585.5343,260
585.6394,410.4
585.7012,478.9
586.0566,390.6
586.3092,8106.9
586.3245,697.1
586.3952,754.7
586.4667,148.7
586.6548,25.9
586.7576,401.9
586.8407,2053.5
586.9123,1441.7
586.9743,626.5
587.1303,162.7
587.1784,576.3
587.3125,1217
587.398,303.1
587.8769,370.2
588.0063,699.5
588.1199,299
588.2053,186.3
588.7048,624
588.8012,231.8
588.838,1501.9
588.9774,865.4
589.0035,576.6
589.925,232
590.0082,297.6
590.3214,1954.2
590.39,164.8
590.4158,153.2
591.239,219
591.359,114.3
591.5334,277
591.8413,255.8
591.875,340.7
592.2004,390.2
592.254,477.3
592.3367,2233.3
592.457,253.7
592.5396,20.2
592.6001,764
592.6851,253.7
592.8579,8290.3
592.9484,491.4
592.98,18
593.016,135.1
593.1437,135.9
593.1942,179
593.2613,541.2
593.334,152.2
593.3541,169.6
593.5078,236.4
593.8101,629.1
594.0812,358.7
594.1306,179.9
594.1469,377.2
594.251,469.9
594.6437,739.6
594.8549,9243.9
594.9264,19.1
595.025,175.9
595.1516,780.9
595.231,226.7
595.2715,19.8
595.4399,808
596.0886,860.4
596.192,23.5
596.3762,172.3
596.5826,357.4
596.8518,2537.8
596.8705,531.3
596.8778,626.2
596.8824,556.9
596.9235,579.1
596.9412,543.7
597.0018,176.2
597.2032,373
597.3767,610.3
597.4488,1609.8
597.4592,3379.7
597.4852,14052
597.5286,150.3
597.6547,142.8
597.7147,594.1
598.1786,230.5
598.4308,126.2
598.4878,1399.1
598.5277,21.8
598.7318,143.6
598.9437,402.3
599.1609,613.9
599.3642,312.9
599.4581,1045.3
599.5019,3946.8
599.6023,589.1
599.612,703.5
599.8846,443.2
600.0202,142.6
600.0875,931.2
600.2822,830.3
600.4737,630.6
600.4975,19.5
600.5301,301.6
600.6347,177.2
600.6391,191.9
600.6451,155.2
600.721,227.8
600.7854,188.7
601.2908,513.9
601.4831,308
601.5192,570.4
601.6045,179.1
602.0481,646.7
602.2961,512
602.4185,152.3
602.4525,448.8
602.5257,465.1
602.6766,155.4
602.7049,195
602.8149,433.6
602.9955,146.8
603.1042,532.6
603.308,412.8
603.534,831.1
603.6242,215.8
603.7469,572.1
603.7811,228.1
604.1012,698.6
604.1885,227.4
604.311,726.3
604.5158,424.5
604.8822,911.5
604.9679,603.7
605.3741,161.8
605.4935,185.3
605.5323,21
605.8853,354.8
605.9471,283.4
606.1153,22.6
606.2989,882.4
606.4289,743
606.5393,276.8
606.7879,258.3
606.8102,338.6
606.8978,19.1
607.4304,243.3
607.8624,857.9
607.9906,158.4
608.0943,635.8
608.3086,120.6
608.3424,649.4
608.3655,133
608.5852,371.8
608.8312,2540.5
609.2766,185.1
609.3437,181.9
610.0316,193.5
610.3114,866.7
610.398,263.2
610.4245,389.9
610.5216,297.6
610.537,290.7
610.6021,25.1
610.6384,22
610.7535,653.9
610.8287,3135.4
611.0348,554.2
611.0569,492.2
611.3906,273.4
611.54,240.3
611.6455,143.9
611.672,201.4
611.7366,299.3
611.9774,239.8
612.0978,445.9
612.3236,436.5
612.58,152.9
613.1624,19.9
613.2301,21
613.3515,643.6
613.4359,303
613.7611,950.9
614.1997,462.2
614.4038,872.9
614.8471,675.3
615.2716,337.4
615.4652,543.4
615.589,642.9
615.6423,159.6
615.8139,141.3
616.2206,894.3
616.2375,236.4
616.3383,802
616.743,495.3
617.0666,437.4
617.1142,420.6
617.1683,22.8
617.2017,611.6
617.3149,641
617.3731,152.9
617.3874,308.6
617.4436,23.5
617.4753,7106.9
617.6267,250.1
617.6503,238.5
618.1719,735.9
618.324,410.3
618.4281,573.6
618.4797,1229.9
618.5998,568
618.8251,663.1
618.8757,726.6
618.8832,378.9
618.9975,18.2
619.4912,19654.6
619.6526,309.6
619.7244,722
619.8563,162.4
620.3489,20.6
620.4946,5324.3
621.0672,648.7
621.0946,469.5
621.323,231.5
621.4584,1887.6
621.4861,9097.2
621.6719,676.3
621.8012,22.3
621.8515,198.3
622.0732,686.7
622.1905,174.4
622.3442,162.8
622.4473,1078.8
622.4729,285.3
622.489,261.2
622.6984,17.2
622.7188,21
622.822,592.1
622.9323,174.3
623.136,7522
623.4575,723.5
623.4706,976.7
623.4947,159
623.7675,19.8
623.7945,236.3
623.8977,149
623.9943,19.6
624.1387,218.5
624.281,493.6
624.3032,635.1
624.7843,227.2
624.805,199.1
624.9316,365.6
625.2091,174.2
625.3948,408.8
625.4688,335
625.4804,363.5
625.5197,1063.7
625.702,433.9
625.7736,155.5
626.1522,551.8
626.1796,329.6
626.2713,232.5
626.4005,267.7
626.5887,351.1
626.8688,134.6
627.0942,435.9
627.2857,145.8
627.5355,1026.2
627.7605,793.9
627.8737,133.4
628.507,273.9
628.6559,395.8
628.6963,843
628.8834,157.6
629.1525,13320.8
629.2671,394.7
629.4153,418.5
630.0481,125.6
630.1553,1483.9
630.2325,18.1
630.4792,226
630.5579,621.1
630.7354,137.1
630.98,196.4
631.0644,19.2
631.4052,22.6
631.4452,459.2
631.5105,130.8
631.625,324.1
631.6725,123.7
631.9682,607.7
632.2059,228.6
632.2605,377.3
632.5309,455.4
632.5612,18.7
633.0954,391.8
633.2434,441.5
633.28,795.5
633.3334,245.3
633.3781,431
633.9223,293.9
633.9458,18.6
633.9784,379.8
634.7083,375.1
634.7877,687.1
634.8431,2844.6
634.9893,575.9
635.1999,438.2
635.2587,284.4
635.3364,172.7
635.4647,710.9
635.9139,252.7
636.2355,254.6
636.4426,929.1
636.5204,20
636.7425,376.3
636.7863,591.3
636.8391,2641.1
636.9821,541.6
637.3403,482.3
637.7067,19.1
638.211,519.7
638.2955,541.8
638.3378,348.7
638.392,22.1
638.492,379.8
638.591,733.3
638.7215,199.4
638.7428,343.4
638.7908,612.1
638.8377,426.9
638.9162,137.6
639.133,375.2
639.4268,423.9
639.6301,377.4
639.8354,19
640.4909,19.5
640.7186,397.6
641.0656,261.1
641.3999,779.6
641.4532,307.4
641.5015,252.9
641.6064,303.3
641.8022,235
641.8464,729.3
642.0174,166
642.2544,531.2
642.4049,219
642.4321,708.5
642.507,255.6
642.6477,296
643.0406,407.1
643.6616,28.4
643.8054,634.5
644.1965,666
644.2362,204.5
644.872,447.5
644.9705,20.6
645.1172,6088.5
645.3203,732.6
645.4428,811.8
645.6985,571.6
645.7531,647
645.8453,902.8
645.868,205.4
646.296,358
646.7252,154
647.0009,161.6
647.2174,357.8
647.4981,1016
647.504,1010.6
647.51,840.6
647.6892,197.4
647.7021,19
647.9588,546.6
648.1464,165.5
648.249,574.2
648.3691,325.7
648.6529,315.8
648.8712,529
649.1887,19.1
649.2413,226.5
649.4908,397.4
649.5149,221.5
649.6286,21.4
649.7253,510.4
649.8653,121.5
649.905,181.7
650.1216,653.2
650.1429,302.9
650.3307,21.3
650.4391,1021.9
650.5138,149.1
650.8167,1666.8
651.1345,23937.9
651.4911,578
652.0548,170.7
652.1381,2415.8
652.702,835.6
652.813,2600.6
652.8579,19.9
652.8694,434.1
652.9609,151.4
653.1262,21.2
653.2733,21.1
653.3872,128.6
653.9642,252.8
654.1437,331.9
654.1894,686.7
654.5555,139.6
654.7157,368.8
654.7218,342.4
654.73,284.8
654.7368,506.1
654.7416,512.7
654.9185,444.3
655.4378,923.3
655.4638,331.7
655.6419,759.8
655.8893,692.8
656.4162,292.4
657.0152,21.3
657.4045,629.3
657.7859,24.6
658.2072,146.6
658.4035,341.8
658.4292,1121.6
658.496,416.6
658.7902,22.9
659.021,341.9
659.0643,394.1
659.1628,681.9
659.4142,172.5
659.4359,201.4
659.9289,129.6
660.0317,120.4
660.2928,187.2
660.5607,22.3
660.6118,197.3
660.8005,224.2
660.8523,270.2
660.9681,23.5
661.0675,129.8
661.0825,4717.7
661.2466,173.7
661.3148,272
661.7007,196.3
661.7556,180.5
661.8673,632.7
662.2399,262.7
662.2737,553.6
662.465,568.7
662.8827,522.3
663.3209,732.9
663.4539,683.8
663.5335,418.3
663.55,24.4
663.9927,403
664.0387,313.2
664.0553,142.9
664.2744,229.3
664.4077,18.6
664.4687,2755.4
664.5152,128.9
664.5978,415.1
664.8479,19.3
665.4928,175.3
665.6939,718.6
665.7486,125.5
665.8018,27.2
666.3755,659.6
666.4326,308.9
666.4838,5245.9
666.7258,249.7
666.7507,533.8
666.9698,221.3
667.0993,18915.3
667.5427,252.8
667.6075,159.5
667.6434,645.3
667.9991,562.3
668.0476,772.9
668.1037,377.6
668.3507,524.5
668.5057,172.8
668.785,1477.4
668.9789,350.8
669.3511,796.3
669.4773,297.3
670.3143,880.8
670.4305,20.6
670.467,114.2
670.6158,19.8
671.4222,223.3
671.8944,397.2
672.0117,468
672.4215,1261.6
672.4476,121.7
672.8318,371.5
672.9375,250.5
672.9668,372.2
673.0841,739.7
673.1165,44146.8
673.5484,266.5
674.1199,6401.3
674.183,481.7
674.2987,173.3
674.5504,175.4
675.0856,751.2
675.2732,237.3
675.5438,16707.6
675.853,942.3
676.0463,1961.9
676.2717,189
676.4229,765.4
676.547,2678.5
676.6761,180.5
676.7152,560
676.7457,264.3
676.8542,316.3
677.049,142.3
677.2104,246.4
677.5563,354.3
678.0281,236
678.4409,624.7
678.5685,17.7
678.9088,132.4
678.9678,575.9
679.0353,18.3
679.0753,485.5
679.3348,171.7
679.3695,161.1
679.4162,18.6
679.4421,306.8
679.5026,167.6
679.6033,467.1
679.7686,204.7
680.1136,674.1
680.1537,360.8
680.548,576.5
680.7585,252.4
680.7696,266
680.7769,336.1
681.2965,199.7
681.8958,20.8
681.9413,558.9
681.9685,400.8
682.0123,801
682.0353,201.9
682.0408,220.9
682.0644,6585.4
682.698,153.3
682.866,544.4
682.9444,254.5
683.0637,4549.6
683.3911,201.5
683.5208,713.2
683.817,385.1
683.8789,172.9
683.9621,477.5
684.1511,139
684.2112,603.5
684.315,641.8
684.4162,407.4
684.7615,166
685.2956,715.4
685.3671,202.7
685.4363,3571
685.7996,426
685.9736,270.5
686.4395,847.6
686.6713,481.2
686.7099,439.8
686.7475,787.3
687.3682,454.4
687.7144,746
687.9569,228.2
688.191,582.9
688.308,422.8
688.4544,738.7
688.5063,651.6
689.0807,16554.1
689.1139,268.4
689.3265,164.3
689.3966,298.5
689.5601,4140.9
689.7046,292.2
689.9482,19
690.094,1342.8
690.1558,21.9
690.4193,401.2
690.4496,20.2
690.8275,359.5
690.9934,330.5
691.0934,144.3
691.1903,378.3
691.3327,219.6
691.9431,632.3
692.2767,255.2
692.4791,344.4
692.4963,599.4
692.7965,362.2
692.8263,225.2
693.3111,313.5
693.7093,773.8
694.2467,406.8
694.4111,263.1
694.5126,836.5
694.5966,158.4
694.8659,619.3
695.0532,368
695.0984,34760.9
695.2714,262.8
695.51,847.3
695.6996,948.2
695.9163,604.6
696.1019,4171.5
696.2166,207.9
696.5258,128.4
696.8107,583.5
697.0608,127.7
697.1021,276.9
697.5255,15791.6
697.6457,162.1
697.8575,603.4
698.0283,1916.3
698.4601,617.7
698.5293,5470
698.7075,20.7
699.1158,688.6
699.1791,595.6
699.3493,20.5
699.869,20.3
700.0524,143.5
700.7652,20.5
700.9763,319.7
701.2422,154.9
701.4093,631.8
701.4452,943.7
701.5594,34865.8
702.1353,555.6
702.1574,374
702.3417,6198.6
702.5627,11826.5
702.7408,392.5
702.9965,16.3
703.0125,424.1
703.3087,19.8
703.3451,521.9
703.5753,109857.1
704.046,5882.9
704.2255,605.8
704.4474,788.7
704.5784,38590.8
704.7138,131.1
704.8956,22.6
705.0438,3963.9
705.5574,702.4
705.5813,4376
705.728,224
705.9966,145.7
706.0527,555.1
706.1241,24.7
706.3789,556.9
706.5164,1082.6
706.5385,4526.6
706.8255,197
707.308,22.5
707.3859,548.6
707.4382,194.8
707.7422,595.7
708.013,794.6
708.0398,597.1
708.0765,1199.4
708.1163,166.8
708.251,20.7
708.3231,432.6
708.7207,397.8
708.8706,308.6
709.1709,602.5
709.2387,362.8
709.5,451.1
709.6258,706.3
710.039,363.3
710.3819,147.5
710.715,416.8
710.8851,412.8
711.0629,11298.6
711.0732,12451.1
711.096,130.1
711.3865,181.1
711.4324,757.6
711.5416,2484.7
712.0712,473.5
712.0778,514.9
712.3914,21.8
712.5637,348.4
713.0864,304.9
713.342,159
713.4502,181.7
713.5015,1173.7
714.0472,328.7
714.486,406.5
714.5682,324.6
714.6544,241.2
714.9354,349.5
716.1176,280.5
716.1983,577.3
716.4288,769.7
716.6388,196.4
716.9612,149.1
717.0806,15990.8
717.2364,377.1
717.7792,21.7
717.9866,395.7
718.0838,1152.6
718.1736,19
718.254,18.5
718.4143,138.7
718.4504,163
718.575,552.6
719.197,216.4
719.2269,239
719.5864,293.6
720.0213,2349.2
720.0564,348.6
720.7933,178.4
720.9169,162.9
721.0106,653.2
721.2523,708.1
721.2713,146.2
721.3549,226.5
721.4519,294.7
721.4782,70378.6
721.6383,457.8
721.6645,120.1
721.7493,182.5
721.8961,436.4
722.0492,230.9
722.1896,439.5
722.4001,267.1
722.4816,26171.5
722.5417,597
722.9984,433.1
723.0242,777
723.333,23.3
723.4943,14629.9
723.5415,34977.4
723.5794,159.8
723.9103,791.6
723.9829,19.4
724.1701,184.6
724.3297,158.9
724.4038,796.4
724.4413,282.5
724.4973,2730
724.5448,10812.6
724.6311,605.6
725.1774,421.3
725.1833,411.2
725.3572,547.4
725.5126,145.5
725.5572,72499.2
725.7623,1039.7
726.0282,4437
726.2655,43.9
726.5606,29658.3
726.9302,450.5
727.0293,4274.1
727.0955,156.5
727.2026,376.8
727.5629,3983.8
727.7682,361.8
727.8644,239.8
728.0194,56.5
728.34,561.8
728.5202,3589.3
728.7475,170.1
729.1001,161.3
729.2319,466.6
729.5911,13411.1
730.5388,15163.4
730.5942,4756
730.6433,752.4
731.132,402.5
731.2297,502.7
731.4266,23
731.543,767.8
731.607,7155.9
731.9939,129.6
732.3786,223.5
732.5543,65893.6
732.6103,3067.8
732.8895,470.8
732.9077,600.9
732.9751,396
733.046,5018.1
733.0561,7048.3
733.1338,208.5
733.2748,673.4
733.5575,23025.3
733.6449,440.2
733.7174,166.6
733.7344,663.7
734.0469,577
734.0696,290.9
734.1484,473.6
734.1964,234.9
734.298,608.4
734.3396,616.7
734.4162,552.4
734.484,240.2
734.5704,8326.1
734.8819,174.2
734.9851,595.2
735.496,295.5
735.5745,2538.9
735.687,731
736.0129,585.4
736.091,385.7
736.9482,392.4
737.0477,324.2
737.1584,356.1
737.3644,119.4
737.4519,18963.4
737.5791,197.1
737.9107,142.6
738.456,4456.9
738.5363,291.7
739.0624,10515.2
739.1399,893.8
739.1566,979.2
739.2218,137
739.4358,509.3
739.4652,346.3
739.5164,6996.3
739.7319,142.3
739.838,665.6
740.4709,908.3
740.5224,616.9
740.6358,537.1
740.6736,421.6
740.7643,269.3
740.8198,543.1
740.9088,719.4
741.5311,13109.5
741.9472,202.2
741.9751,1161.6
742.0033,968.6
742.0423,705.9
742.1472,171.3
742.3526,258
742.5348,2211.4
742.5747,6755.4
742.8118,1019.7
742.8846,517.9
742.9399,132.3
742.9989,147.5
743.2887,126
743.3419,226.2
743.4647,814.8
743.5792,1624
743.616,638.6
743.9236,487.3
743.9845,343.2
744.0404,386.8
744.0566,193.8
744.2121,174.6
744.4936,917.2
744.5544,9476.5
744.5909,15492.6
744.6383,18.1
744.7602,418.1
744.9656,534.9
745.1031,254
745.1497,698.5
745.1945,251.6
745.4782,30750.7
745.5938,3732.2
745.7179,559.7
745.7869,122.6
746.1334,127.7
746.1995,481.8
746.3897,345.4
746.4817,6863.3
746.5703,4645
746.6063,3742.9
746.6301,208.5
746.859,443.5
747.4593,430.8
747.4942,12230.5
747.5722,1723.3
747.907,538.9
747.9373,131.7
748.0089,1515.3
748.1373,350
748.3134,779.1
748.4445,948.7
748.4981,1681
748.52,629.1
748.8574,135.5
748.9542,617
749.0089,1867.8
749.0944,123.8
749.3218,235.9
749.509,5249.2
749.6492,340.3
750.0464,551.3
750.2234,278.6
750.3383,343.5
750.3654,390.1
750.5164,470.8
750.5297,352.6
750.8614,455
750.9982,114.7
751.0502,821.2
751.1975,804.3
751.4744,857.4
751.5194,408
751.5729,6359.7
752.1257,717.1
752.5208,12205.4
752.5751,1903.7
753.0124,633.6
753.0517,138.8
753.3875,342.2
753.5232,4899.1
753.6304,736
753.8075,1163.8
754.0382,182
754.1142,374.1
754.181,21.6
754.5364,43751.2
755.0269,3168.6
755.0348,3048.3
755.2627,205.9
755.2965,912.9
755.5399,15718.4
755.6677,677.6
755.8759,120.8
755.933,213.4
756.2525,216.4
756.5541,60237
756.7949,487.4
756.859,886.1
757.1571,228.6
757.1772,1022.2
757.2425,143.8
757.5575,22182.1
757.6221,1900.6
757.7967,500.5
757.9913,375.3
758.5699,1447676.1
758.6221,523.2
758.6807,119.7
758.9927,485.9
759.0873,1212.2
759.2967,303.7
759.3755,709.5
759.5733,638276
759.6377,2688.3
760.3092,20.7
760.3611,1093.2
760.3968,569
760.5864,505290.5
760.6418,325.7
761.0452,2542.9
761.1304,567.4
761.4515,2558.9
761.5892,244670.4
761.6247,135.6
762.0033,495.7
762.0775,152.4
762.385,252.2
762.456,1479.6
762.5071,18.3
762.5923,52887.4
762.8852,172.7
762.9145,19.4
763.2711,244.5
763.3349,168
763.3905,673.1
763.4121,229.3
763.4682,2525.1
763.531,702.7
763.5943,4839.4
763.6545,141.9
763.9595,159.3
763.9745,314.5
764.5332,207.6
764.5564,743
764.6402,20.6
764.7416,261.7
764.9258,18.4
764.9814,154.2
765.2744,557.8
765.2994,833.2
765.3259,692.6
765.4773,908.5
765.707,176.3
766.0942,689.4
766.121,135.2
766.1747,21.7
766.2089,359.9
766.5368,3579.5
766.5743,27756.1
766.7508,17.5
766.8309,172.9
766.981,415.4
767.0323,424.5
767.1949,752.6
767.466,779.4
767.5779,8609
767.8219,611.7
767.8457,891.6
768.0799,368.6
768.3266,943.8
768.496,771.9
768.5526,4433.2
768.5908,38422.3
768.8668,664.2
769.2207,216.6
769.238,250.7
769.3238,196.9
769.4325,319.9
769.4782,5790.5
769.5523,268.4
769.5941,18001.7
770.1286,295.5
770.3728,381.9
770.5104,6557.4
770.5713,2516.8
770.6074,8776
770.6278,229.3
770.9344,18.5
770.992,7033.5
771.2726,18.7
771.4786,144.5
771.5143,3283.1
771.5725,302.8
771.609,623.2
771.6441,23
771.6653,415
771.7552,483.1
772.0614,592.2
772.5244,257.9
772.5856,19580
772.8006,360.3
772.9519,179.3
773.012,262.8
773.1465,153
773.3764,735.3
773.4046,918.1
773.4367,22.4
773.4856,719.6
773.5107,209
773.5901,6107.7
773.6409,201.9
773.7208,158.7
773.803,725.9
773.9335,368.6
773.97,677.1
774.0429,363.1
774.2415,478.1
774.3386,162.6
774.5078,180.7
774.6014,1403.1
774.631,535.7
774.7837,234.5
774.9713,202.2
775.2691,573.2
775.5141,336.6
775.6485,142.4
775.7771,295.1
775.7996,155.7
775.9576,520.8
776.3249,583
776.5196,1666.4
776.5498,139.9
776.9769,751.4
777.0094,5400.2
777.3296,372.8
777.4341,346.9
777.5462,775.9
778.3487,139.2
778.5113,194.1
778.5362,33904.8
779.0876,23.3
779.5394,11768.7
779.5691,200.6
779.6007,604.8
779.6242,200
779.9484,579.8
780.0922,215.6
780.3461,19.5
780.552,793302.2
780.8565,892
781.1217,1597.7
781.4109,990.9
781.5554,349723.1
781.6366,26.6
782.2616,244.3
782.4324,162.1
782.5696,793698.2
782.6986,284.4
782.9479,874.8
783.0267,6758.4
783.295,573.9
783.3283,348.9
783.3655,390.4
783.5728,373246.2
783.9928,271.4
784.0434,928.2
784.4799,211.7
784.5863,412701.5
785.2821,230.7
785.5891,199837.9
785.653,3625.2
785.8029,822.3
786.1144,153
786.3807,116
786.6018,349903.3
786.6589,1040.8
786.7933,593.7
786.907,2279.1
787.0026,179.1
787.0316,148.4
787.3544,422.9
787.4575,399
787.5442,223.2
787.6047,170225.2
787.6695,842.1
788.1863,354.8
788.5578,1528.7
788.6048,24701
788.6201,18613.4
789.0595,191.8
789.1734,788.9
789.3149,414.1
789.6212,10473.5
790.0442,2135.3
790.2091,592.7
790.5501,1467.3
790.5731,16394.7
790.6234,2366.9
791.0506,1014.7
791.1753,579.8
791.1964,420.4
791.2445,537.6
791.5775,2777.7
791.9007,537.8
792.1701,150
792.5903,8160.5
792.9031,17.6
792.9813,406.1
793.5937,1483
793.9895,1055.4
794.0517,1076.9
794.2179,669.7
794.2901,47.4
794.3355,1007.1
794.5111,2887.4
794.5662,3059.9
794.6064,45037.4
795.019,409.5
795.2601,1708.4
795.3059,209.5
795.5711,417.9
795.6096,20721.6
795.7519,377.1
796.0568,1323.7
796.2187,18.3
796.2831,269.5
796.3791,1491.5
796.5258,194251
796.5849,5482.4
796.6233,4566.8
796.7995,34.9
796.8419,540.8
797.0851,274.5
797.5293,84412.1
797.5847,678.4
797.6257,2098
798.4328,181
798.5428,55908.2
798.6004,1006.9
798.6391,461.8
798.9664,243.9
799.0007,1222.5
799.0767,429.9
799.2345,1066.6
799.4027,443.8
799.5454,21849.1
799.6676,943.3
799.8337,885.1
800.3623,581
800.5507,302
800.769,21.3
801.095,197.2
801.6974,245.7
801.7324,18.1
801.8678,29
801.994,152.6
802.1531,113.6
802.1812,1284.7
802.5002,657.6
802.5361,25876.2
802.6008,632.8
802.9512,160.5
803.2233,620.3
803.2979,134.9
803.5401,9434.5
803.7569,696.8
803.7858,20.9
803.903,235
804.0557,246
804.1437,302.6
804.2327,629.8
804.5518,324712.8
804.9144,370.6
805.2238,308.1
805.2488,120.6
805.3434,218.8
805.4016,186.4
805.5553,157925.9
805.8727,18.7
805.9156,30.6
805.995,26.8
806.569,295974.5
806.6022,746.8
807.1088,188
807.5719,148707.6
807.8663,127
808.1286,593.5
808.585,234093
809.5881,114725.3
809.6557,307.7
810.2801,158.3
810.5366,277.9
810.6019,140104.2
810.9429,22.8
811.0594,25
811.2857,133.1
811.6047,75934.6
811.6695,7123.5
811.74,434
812.619,31056.8
812.6489,148.9
812.6728,1031
812.713,732.4
812.7804,209.5
812.8144,410.2
812.99,203.5
813.4414,577.3
813.5221,614.1
813.565,557.6
813.6211,17229
813.6609,525.8
813.6852,6108.9
814.4099,627.3
814.5747,1261.6
814.6233,1465.6
814.6882,1548.7
814.7427,1025.7
814.8935,25
815.0584,708.6
815.1654,109.7
815.2772,294.8
815.6673,205.3
815.9226,156.8
815.9373,128.4
816.0541,39.3
816.1951,428.3
816.2698,303.9
816.5887,12635.3
816.8923,495.4
817.5927,1898.4
817.7479,734.6
818.2153,645.3
818.4428,164.5
818.5096,3847.9
818.5605,660.1
818.6045,2021.9
818.8291,815.8
818.9189,343.9
819.0968,1322.4
819.1796,237.8
819.5131,1004.8
819.9628,334.7
820.0049,20.7
820.2251,177.9
820.2822,733
820.5259,86328.2
820.602,20.2
820.6191,159
821.2504,473.5
821.5292,34703
822.1939,144.4
822.5421,47803.9
822.8509,406.3
823.0394,1310.3
823.2364,548.1
823.5454,22600.3
824.1985,359.3
824.5105,419.7
824.5576,31809.5
824.6151,218.3
824.8671,19.4
825.4007,131.4
825.56,12629.9
825.5863,453.8
825.6773,18.1
825.7346,188.7
825.8905,268.3
826.0466,21.8
826.0853,17.9
826.435,239.5
826.6607,161.2
826.7617,501.8
827.0655,441.1
827.4456,209.3
827.7453,864.9
828.0458,20.1
828.4174,754.5
828.4415,753.8
828.5518,63228.5
828.7142,19.4
828.8824,1349.2
828.9476,496.2
829.4454,600.1
829.5553,30466.3
829.67,535
829.6969,176.5
829.7665,377
829.8222,1396.1
829.9499,965.6
830.0438,3100.2
830.0731,808.5
830.302,449.3
830.3773,914.2
830.5683,50808.6
830.9962,419.5
831.5364,149.6
831.5712,28608.9
831.6912,973.7
832.0596,457.5
832.2572,21.4
832.5841,59680.3
832.8827,130.7
833.1033,494.9
833.2824,506.6
833.3766,22.4
833.5866,27896.1
833.6511,611.6
833.7594,659.9
833.8029,1789.9
834.2351,412.8
834.2852,929.5
834.3327,120.7
834.4412,838.8
834.6014,22045.3
834.9663,381
835.1198,652.2
835.1418,28.6
835.6053,8467.3
835.7511,421.8
835.8007,219.4
835.9089,229.3
836.0188,281.2
836.1143,283.3
836.3848,226.8
836.4246,32.1
836.6187,2076.5
836.7536,289.4
837.2571,399.9
837.3074,199.1
837.6216,176.4
837.9502,641.5
837.9874,617
838.0969,627
838.2218,1376.4
838.2879,386.6
838.3774,208
838.4067,179.5
838.509,470.3
838.635,201.1
838.9467,1161.5
838.9719,715.6
839.4888,720.2
839.9945,1168.5
840.4899,1400.8
840.649,245.4
840.8432,23.4
840.8704,229.3
840.9329,267.7
840.9627,378
841.0943,790.6
841.5874,601.3
841.731,217.6
841.8182,228.8
842.1577,350.1
842.2887,679.4
842.6825,717.2
843.0573,202.9
843.1888,160.1
843.9217,2075.8
844.1849,366.7
844.5267,14445.8
845.0845,173
845.4963,648.5
845.5283,4147
845.5847,160.7
845.6301,291.8
845.7355,424.7
846.0253,517.1
846.2105,135.4
846.3175,815.5
846.4528,247.7
846.5104,24.2
846.5417,8914.4
846.5877,434.3
846.6662,886.9
846.7481,547.1
847.545,1636.5
848.1216,515.6
848.5567,11876.4
848.9375,185.4
849.0876,196.4
849.5593,3193.2
849.5967,378.3
849.7262,609.3
849.7475,1584.4
849.7786,683.8
849.7995,2204.7
849.8276,798.9
849.9739,603.2
850.1699,380.6
850.3673,604
850.5724,136.6
850.6894,258.5
850.9877,701.8
851.0194,910.6
851.3899,131.7
851.473,158.3
851.679,572.6
851.7825,498.2
852.0941,23.4
852.2185,204.2
852.3369,563
852.4145,257.4
852.8136,239.7
852.9427,127
852.9962,226.2
853.1626,665.6
853.1903,155.4
853.2652,488
853.4859,2131.7
853.7011,345.2
854.0098,1072.7
854.4927,669.8
854.8856,1086.1
854.9373,820.4
855.2304,23
855.3967,172.3
855.4845,22.3
855.7019,213.2
856.017,448.1
856.096,166.1
856.3425,163.2
856.5837,2476.3
856.8172,20.6
857.2201,631.5
857.336,127.2
857.5802,553.6
857.7263,20.1
857.8942,609.5
858.429,791.8
858.5169,547.7
858.5973,186
858.9132,682.5
859.7097,871.7
859.9808,137.8
860.0384,30
860.0934,19.4
860.5422,833.8
861.0281,291.3
861.3937,18.4
861.5606,579.2
861.661,294
861.8484,255.7
861.9104,154
861.9671,1634.2
862.2081,487.1
862.4915,1002.5
863.1431,205.3
863.209,242.1
863.2319,264.7
863.2719,782.9
863.5217,417.9
863.6571,271.1
863.855,152.6
864.0063,217.4
864.2258,343.1
864.4017,1566.1
864.7869,737.1
864.8164,290.1
865.3342,130.3
865.901,510.3
865.976,870.5
866.002,388
866.0342,549.9
866.1825,717.4
866.5303,630.8
866.9534,1088.2
867.0348,111.6
867.1772,364.7
867.2645,168.7
867.5023,293.9
867.5712,1033.1
868.2345,630
868.3131,231.1
868.4327,176.4
868.5224,326.3
868.6599,21.5
868.7189,1147.7
869.0922,152.8
869.2393,1549.9
869.2942,362.9
869.3815,375.9
869.4207,325.7
869.4669,336.7
869.5042,1015.9
869.5531,694.2
869.6037,1174.1
869.6658,1716.7
869.6942,3336.9
869.7579,6878.1
869.7982,6532
869.8388,3312.9
869.8599,3369.3
869.8875,4295.5
869.9166,3691.5
869.9773,1367.5
870.0351,911.7
870.0587,527.3
870.0854,219
870.4643,1185.4
870.4977,263.7
870.5944,384.3
870.728,468.2
870.8167,178.5
870.9152,24.1
871.0932,18.5
871.1732,146.1
871.3277,192.6
871.802,289.2
871.8805,252.7
872.1446,1378.6
872.6824,34.2
872.811,45.6
873.0519,21.8
873.0936,588
873.2442,174.3
873.3999,281
873.6812,258.2
873.9736,626.7
874.0786,578.3
874.2767,751.2
874.5565,838
874.6156,630.5
874.9934,23.9
875.018,409.9
875.0805,196.4
875.1688,1137.3
875.221,523.4
875.3352,493.9
875.6133,402
875.8351,319.2
876.5714,229
876.6364,1954.2
877.0716,529
877.085,670.9
877.3464,128.5
877.559,1503.2
877.5865,152.5
877.9148,782
878.0434,381
878.166,217.2
878.9681,180.7
879.3645,645.5
880.1371,608.2
880.2365,294.8
880.487,555.2
880.7555,925.2
880.8408,552.7
881.0173,192.5
881.3596,858.1
881.6592,369.4
881.9823,416.3
882.0319,19.8
882.2656,231.4
882.6875,258.4
882.9347,196.4
883.0253,853.6
883.271,2083.6
884.095,847.4
884.1504,268.9
884.209,2101
884.4123,607.5
884.8353,160
884.8738,166.6
885.096,298.2
885.1425,214.5
885.1685,292.6
885.2252,1156.6
885.3791,297.9
885.5446,1252.9
885.6403,156.3
885.7794,20.2
885.9338,741.3
886.1405,788.3
886.4016,18.8
886.5656,618.1
886.704,225
886.7374,959
886.8494,1127.9
887.2282,267.5
887.4525,175
887.6194,772.7
887.6407,374
887.9289,596.2
888.0564,21.8
888.4786,39.8
888.7251,533.2
888.8165,229.4
889.0546,303.3
889.1287,717.7
889.3199,154.7
889.3811,207.2
889.4483,147.4
889.6515,664.9
889.6749,345.5
889.714,18.6
890.4172,23.8
890.4926,17.8
890.5855,20.2
890.7822,163.5
890.8342,730.9
891.4206,19.7
892.1014,945.1
892.2031,1131.5
892.8163,246.4
892.8771,1193.8
892.8895,968.9
893.4347,798
893.5716,2113
894.0273,312.3
894.0951,166.1
894.4599,130.9
894.8016,1309
894.9662,18.8
894.9994,379.6
895.4038,743.6
895.472,675.5
895.6374,381.3
895.9243,419.7
896.1531,1082.7
896.2002,605.7
896.2341,1007.7
896.3892,209.4
896.4221,697.8
896.5649,848.8
896.5852,385.5
896.6297,966.7
896.6861,251.4
896.8323,672.5
896.9531,255.9
897.0461,692.7
897.1803,19
897.2326,368.8
897.3576,316.3
897.7195,267.9
897.8632,417.2
897.9529,396.9
898.0488,245.2
898.4145,128.6
898.4644,640
898.8802,455.2
898.9098,638.6
898.9759,402.1
899.0808,943.4
899.1102,30.9
899.3875,20.1
899.6296,227.3
900.2831,353.2
900.9352,751
900.9887,19.4
901.121,831
901.2961,1290.5
901.4242,660.7
902.185,931.3
903.2149,137.1
903.2546,352.1
903.3732,179
903.6168,387.9
903.6818,19.9
904.5333,130.3
904.6803,1573.6
904.7695,455.4
905.4712,460.7
905.8074,416.7
906.0505,357.2
906.119,1535.5
906.4801,199.6
906.505,200.5
906.566,680.9
906.6373,480.8
906.7879,156.9
906.8539,178.3
906.9917,2400.4
907.1831,215.9
907.225,416.3
907.4185,315.6
907.6015,202.1
908.0373,702.4
908.0539,573.7
908.0782,987.6
908.4576,29.4
908.4896,1133.1
908.5034,1138.8
908.5192,964.7
908.5339,876.4
909.2312,508.1
909.3805,676.1
909.5228,652.2
909.6124,244.6
910.0027,162.1
910.0329,746
911.9075,123.2
912.0921,206.8
912.1335,1130.9
912.3588,1054.9
912.4121,546.7
912.7199,169.3
912.8155,339.5
912.9918,25.7
913.4808,634.6
913.5065,153.7
913.7871,718.7
914.6488,1226.2
915.2641,816.6
915.6637,221
916.23,224.8
916.8067,21.1
916.9599,208.4
917.2214,19.4
917.3147,380.2
917.353,1433.4
917.6912,227.4
917.9085,20
917.9837,603.6
918.2493,155.3
918.4373,569
918.5651,471.3
919.0463,867.5
919.3326,233.2
919.4305,1107.5
920.0178,698
920.2858,228.4
920.3458,575.7
920.5796,676.6
921.1032,679.8
921.3507,31.8
921.9483,562.6
922.1818,218.6
922.2836,157.9
922.4703,424.8
922.7832,1007.5
922.8967,549.3
923.6245,1696.8
924.2693,826.6
924.4753,338.1
924.5045,990.7
924.8832,19.9
924.9902,275.9
925.0179,704
925.5472,570.9
926.2964,956
926.7036,689.4
926.757,245.3
926.9406,709.4
927.1187,170.5
927.2116,1306.9
927.293,174.9
927.5401,313
928.3124,201.8
928.3729,652.5
928.4862,244.7
928.5154,176
928.6561,427.6
929.0834,704.3
929.1419,425.2
929.541,1736
929.6042,1248.1
929.7899,180
929.8749,1833.6
930.005,238.9
930.1211,363.1
930.5943,296.4
930.6917,751
931.6585,1531.3
931.9798,476.8
931.9952,378.1
932.0151,396.2
932.2199,831.3
932.3525,692.7
932.4958,1033.9
932.5349,498.7
932.6019,450
932.6411,558.8
932.729,169.2
932.9315,1339.6
933.0951,123.6
933.1107,167.7
933.1171,166.7
933.3403,2081.4
933.3968,354.7
933.4995,619
933.5853,193.4
933.6332,170.8
934.3103,1020.4
934.7239,520.6
934.9386,779.9
934.9876,1869.7
935.6057,1322.4
935.6739,387.8
935.9491,263.1
936.0745,1030.5
936.2372,334
936.262,295.6
936.3887,856.8
936.5934,1433.8
936.6424,149.9
936.7033,566.4
936.746,398
936.8097,366.1
936.9526,748
937.5397,787.8
937.5639,160.3
937.6617,750.6
937.6926,18.9
939.0893,243.3
939.4889,146.2
939.5674,177.8
939.8346,172.7
939.9971,187.9
940.1875,284.2
940.443,786.5
940.5504,897.1
940.8698,317.9
940.9489,433.7
940.9886,272.3
941.3354,441.7
941.4106,823.2
942.1403,640.3
942.4773,709.3
942.5436,229.7
942.5642,256.9
942.6015,200.2
943.3455,883.6
943.9117,1175.6
944.02,210.9
945.0878,587.3
945.6651,1625.5
945.7382,843
945.9823,676.9
946.2578,204.2
946.3339,901.3
946.362,402.9
946.5596,730.1
946.593,22.4
946.7143,397.8
947.518,20.6
947.7937,843.6
947.9365,862.7
948.2241,1558.1
948.5109,1210.7
949.3521,820.7
949.4319,333.1
949.517,1366.8
949.6598,1452.1
949.7074,633.3
949.9617,243.6
949.9934,502.1
950.0408,887.4
950.0845,1164.6
950.2317,907.6
950.2702,21.2
950.3101,388.3
950.3841,894.3
950.7121,24.4
952.1361,455.5
952.2924,444.4
952.3179,392.7
952.3927,404.5
952.8309,372.8
952.912,1252.9
952.9577,200.6
953.138,646.2
953.3775,520.5
953.8165,643
953.905,925.5
953.9844,137.3
954.1767,420.5
954.8936,433.7
955.0363,138.8
955.3111,142.9
955.7866,686.9
956.0784,330.3
956.231,1579.8
956.362,209.5
956.6101,622.3
956.6785,460.1
956.7611,763.3
957.035,137.1
957.2838,25.2
957.4634,245.5
957.7578,245.4
957.8236,138.4
957.9899,116.2
958.1705,127.5
958.4501,148.1
958.49,939.1
958.8304,374.1
958.9465,233.6
958.9748,301.1
959.2302,162.2
959.4394,626.2
959.4653,569.7
960.5578,441
960.5793,361.7
961.3379,207.4
961.5475,539.8
961.92,998.9
962.0301,557.3
962.4312,648.6
962.7697,1112.2
962.8884,408.4
962.9643,781.6
963.123,578.2
963.6831,178.7
963.7897,21
963.8399,504.7
964.0824,613.6
964.6254,1022.1
964.6861,384.8
964.7161,215.6
965.2423,885.6
965.2887,529.6
965.3392,756
965.4042,1355.3
966.3321,185.9
966.4446,23.4
966.5878,169.5
966.7221,755.1
967.1253,174.4
967.1596,234.4
967.5204,264.8
967.5821,937.1
967.6815,1138.4
967.9187,240.1
968.2834,530
968.5011,223.5
968.5747,484.5
968.9247,814.7
969.0037,19.4
969.3048,401.7
969.3727,1663.5
969.5757,232.1
969.6276,339.9
969.7111,33.4
970.1269,768.7
970.2842,500.2
971.2706,760.4
971.501,238.5
971.9104,829.6
972.3121,339.5
972.428,194.4
972.866,797.5
972.9659,154.3
973.6016,238.9
973.6754,589.4
973.9016,658.8
974.0302,157.4
974.4729,295.8
974.7139,1253
975.0807,124
975.1715,401.4
975.2441,425.4
975.7157,423
975.7756,201.7
975.8194,1423.6
976.0807,299.5
976.3158,970.6
976.4128,502.1
976.7043,427.5
977.702,1032.2
978.1981,833.3
978.3643,631.4
978.4695,145.1
978.5036,377.5
978.921,1124.9
978.9671,157
979.2714,613.5
979.4564,822.7
979.587,1113.4
980.0382,1674.8
980.1585,595.1
980.2706,160.8
980.3173,766.1
980.9199,1263.6
981.4514,664.7
981.5113,913.9
981.7055,243.8
981.8731,781.7
981.9521,343
982.3071,361.4
983.5345,20.8
983.8085,974.4
984.0964,554.8
984.1311,762.9
984.2733,315.3
984.3592,19.1
984.7384,1195.7
984.9585,194.2
985.2372,131.3
985.6999,908.7
986.2749,717
986.5198,317.1
986.6462,1392.3
986.8676,138.3
986.9268,149.3
987.8185,1194.1
987.8765,225.4
988.1207,835.2
988.781,147
988.8683,442.6
988.9501,594.7
989.2723,870
989.5892,962.6
990.5269,896.1
990.7392,650.5
991.1726,20.7
991.2142,18.2
991.79,766.8
992.1072,1754.9
992.5081,1249.1
992.6996,242.8
992.8144,542.5
993.0932,1746.4
993.6802,360.8
993.724,473.9
994.0715,710.3
994.8243,944.5
994.9973,169.7
995.3522,426.9
995.5894,20.5
995.6188,233.1
995.9181,463
996.188,689.2
996.543,19.6
996.8131,632.2
996.9394,1092.1
997.0705,18.4
997.292,228.7
997.3726,613.9
997.6423,211.3
997.727,430.1
998.1815,1804
998.33,18.6
998.3714,150.1
998.4732,191.5
998.5643,589.6
998.5967,1134.5
998.7381,878.4
999.1647,2594.8
999.6986,143.5
