SPECTRUM - MS,
85.RAW,
FTMS + p ESI Full ms [50.00-1000.00],
Scan #: 1-40,
RT: 0.01-1.97,
AV: 40,
m/z,Intensity

50.0058,101.9
50.0151,512.6
50.0204,370.4
50.0634,291.2
50.0811,522.6
50.1081,18.7
50.1267,197
50.1551,481.5
50.1688,538.3
50.1802,137.8
50.2122,17.4
50.236,462.9
50.2692,380.5
50.272,174.1
50.2743,146.4
50.2827,255.1
50.2883,209.7
50.2923,130
50.3466,186.9
50.3627,273
50.3881,15.3
50.3891,111.8
50.3969,457.6
50.3986,360.3
50.4218,522
50.4245,110.9
50.4322,210.8
50.4602,720.3
50.4766,111
50.5018,129
50.526,290.2
50.5292,708.8
50.5453,728.5
50.5573,20
50.5619,698.6
50.5778,112.9
50.589,22.1
50.6055,383.5
50.618,160.3
50.6252,207.5
50.6372,106.7
50.6583,198.4
50.6671,303.2
50.6676,20.3
50.675,163.7
50.6768,304.3
50.6802,200
50.7414,215.5
50.742,17.1
50.7432,90.3
50.7478,16.8
50.7589,157.9
50.763,17.3
50.819,101.7
50.8291,481.9
50.8537,157.1
50.8711,17.3
50.8829,237
50.8927,303.7
50.8965,329.5
50.8998,304.5
50.9093,177.6
50.9183,254.6
50.9319,111.9
50.9346,139.1
50.9385,322
50.9522,192.7
50.9748,16.8
50.9901,259.1
51.0092,165.3
51.0101,231.6
51.0158,192.7
51.0281,17.1
51.039,22.6
51.0421,404.1
51.0453,238.6
51.0526,377.4
51.0853,172.5
51.0906,16
51.1126,18
51.1499,103
51.1542,146.1
51.1637,19
51.1672,495.7
51.186,272.7
51.2064,260.9
51.2084,216.3
51.2137,302.6
51.2277,175.6
51.2307,15.2
51.2333,269.4
51.2375,235.3
51.2411,295.2
51.2446,18.9
51.2683,20.3
51.2841,220.5
51.2913,20.2
51.3114,99.1
51.3405,19.4
51.3506,282.9
51.3907,152
51.4091,203.9
51.418,123.4
51.422,21
51.4369,152.1
51.4705,545.6
51.4794,212.2
51.486,160.5
51.4887,732.8
51.4958,108.1
51.4968,367.8
51.5031,228.2
51.5039,162.8
51.5181,147.9
51.5205,144.3
51.5284,108.6
51.5413,349.3
51.5572,170.8
51.5629,121.8
51.5786,550.8
51.6002,151.5
51.6178,327.3
51.6941,196.1
51.695,168.1
51.713,205.9
51.7197,201.6
51.7463,722.3
51.748,448.2
51.7628,177.7
51.7725,201
51.8056,114.1
51.8076,161.6
51.8159,124.1
51.8177,18.9
51.8548,189.4
51.8897,153
51.8941,246.9
51.905,273.8
51.9098,379.4
51.9157,288.7
51.9222,102.8
51.925,555.2
51.9552,496.5
51.9786,308.9
51.9877,109
52.0094,114.9
52.0169,347.5
52.0263,191.7
52.0478,17.7
52.0812,142.8
52.0822,186.7
52.0943,19
52.1076,100.2
52.1211,264.2
52.1217,228.3
52.1385,118.2
52.1508,491.3
52.156,339.2
52.1753,151
52.1781,306.8
52.2347,437.3
52.2362,312.3
52.2483,202.1
52.2588,483.8
52.2728,475.2
52.2763,499.5
52.2937,23.1
52.2941,269.5
52.313,205.9
52.3249,120
52.3553,18.8
52.3668,296.5
52.3836,17.7
52.3972,16.8
52.4077,117.1
52.4196,17.3
52.4233,114.1
52.4269,364.3
52.4288,319.8
52.4349,161.3
52.4552,299.4
52.4608,17.6
52.4648,422.2
52.4752,410.7
52.4891,111.1
52.49,18.9
52.5044,115.9
52.5205,17.8
52.5216,473.5
52.5232,97.2
52.5274,284.4
52.5278,274.2
52.5299,161.6
52.5378,16.5
52.5493,633.1
52.558,229.6
52.5602,351.1
52.5777,301.8
52.5806,388
52.6038,302.5
52.6356,336.1
52.6418,412.1
52.6541,635.4
52.6597,287.8
52.6669,119.4
52.6845,207.3
52.6849,460.8
52.7068,829.5
52.7086,130.3
52.7179,168.6
52.7565,15.5
52.7604,16.3
52.8335,1924.7
52.8341,522.9
52.8354,2064.5
52.8365,1871.1
52.837,1588.4
52.8377,2540
52.8386,910.6
52.8389,1026.4
52.8393,654.2
52.8398,451.3
52.8417,223.7
52.8422,169.6
52.8462,325.5
52.8535,284.1
52.8592,129.5
52.9166,591.5
52.9225,16.2
52.9377,17.2
52.9417,282.8
52.9609,263.1
52.9706,123.3
52.9878,204.4
52.9946,320.8
53.0049,409.4
53.014,164.7
53.0177,284.7
53.0322,15.1
53.0646,328.1
53.0757,325
53.0788,216
53.083,87.8
53.0984,128.4
53.1068,160.9
53.115,153.1
53.1248,195.6
53.1279,172
53.1293,16.2
53.1316,283.9
53.1324,199.2
53.1355,152.7
53.1376,288.2
53.1434,620.1
53.1521,388.2
53.157,136
53.1723,242.9
53.178,276.6
53.1884,195.4
53.2023,443
53.236,126.8
53.244,426.6
53.246,108.2
53.2528,466.9
53.2532,204.6
53.2545,406.3
53.2742,848.9
53.2754,219.8
53.2783,477.5
53.2895,116.2
53.2981,271.4
53.3346,494.8
53.3464,450.8
53.348,160.5
53.3522,117.5
53.3798,121.9
53.3852,107.3
53.3944,150
53.3978,297
53.3985,246.3
53.4099,21.9
53.422,140.3
53.4259,454.3
53.4406,273.1
53.4429,281.2
53.4462,136.3
53.449,130
53.4513,466.8
53.4538,294.5
53.4556,219.1
53.4821,222.7
53.5075,21.2
53.5132,231.2
53.518,124.1
53.5289,200
53.5395,324.5
53.5436,180.2
53.5499,15.1
53.5741,107.2
53.5848,416.4
53.5965,200.1
53.6056,160
53.6142,15.7
53.6233,180.6
53.6304,180.4
53.6431,239.3
53.6492,531.2
53.6516,534.5
53.6644,144.3
53.6677,222.3
53.6722,137.7
53.6793,668.2
53.6854,278.5
53.7297,309.9
53.7648,178.7
53.7697,16.6
53.7776,91
53.8018,16.8
53.8107,950.2
53.8174,283.2
53.8259,110.6
53.85,112.4
53.8505,251.5
53.8575,130.8
53.8659,118.3
53.9123,167.4
53.9189,15.8
53.9347,16.4
53.9501,474.2
53.9519,656.1
53.9572,221.5
53.9582,121.7
53.9664,153.8
53.9768,272.2
53.9985,381.9
54.0055,17.3
54.0167,122
54.0227,17
54.0308,273.5
54.0358,236.7
54.0856,114
54.0872,376.1
54.1038,317.1
54.1091,222.6
54.1101,380.4
54.1123,182.9
54.1149,143.2
54.115,152.2
54.1152,108
54.1188,236.1
54.1396,297.5
54.1475,153.9
54.1581,245.5
54.1729,345.7
54.2025,634.9
54.203,260.4
54.2074,421.9
54.2122,279.3
54.2308,466.4
54.237,551.7
54.2467,184.6
54.247,170.3
54.2639,166.9
54.2665,299.7
54.2693,388.8
54.2853,268.2
54.2898,160.7
54.3031,327.2
54.3413,248.9
54.3855,351.7
54.387,223.6
54.3878,292.7
54.3999,211.5
54.4103,671.1
54.4145,686.8
54.4196,18.2
54.4294,15.9
54.4537,436.3
54.4915,807
54.4969,150.6
54.5185,287.2
54.5208,471.4
54.5354,211.4
54.5458,365.5
54.5683,507.8
54.5734,588
54.5909,298.7
54.5961,154.9
54.6039,221.5
54.6167,185.7
54.6286,151.6
54.6333,99.2
54.6487,99
54.6618,208.9
54.6637,23
54.6651,247.9
54.6768,196.4
54.6874,151.4
54.6956,229.8
54.6959,239.6
54.6979,356.1
54.7228,288.8
54.7465,142.4
54.7543,106
54.7657,323.8
54.7798,330.4
54.8133,136.8
54.8211,123.3
54.8243,292.9
54.8247,196
54.8254,690.1
54.8262,180.6
54.8438,317
54.8468,21.8
54.8745,331
54.8779,274
54.882,407.3
54.901,263.7
54.9133,172.1
54.9325,263.1
54.941,484
54.9422,20.7
54.9603,199.3
54.9761,160
54.9846,266.2
54.9881,186
54.9994,16.5
55.0074,274.3
55.0178,241.9
55.0275,308.2
55.0291,166.6
55.0303,18
55.0321,123.8
55.0718,676.5
55.1002,231.7
55.103,277.9
55.1083,160.7
55.1209,198.3
55.136,90.6
55.1392,486.5
55.1577,409.2
55.2506,16.4
55.2526,456.8
55.2645,184.7
55.2656,95.4
55.2885,167
55.3088,111.5
55.3283,365.3
55.3481,494.6
55.3503,175.7
55.3545,20.8
55.3635,162
55.3721,479.4
55.3874,409
55.426,149.9
55.4561,142.4
55.4856,305.6
55.5156,177.8
55.5185,596.4
55.5261,140.5
55.5376,290.2
55.5427,264
55.5487,167.2
55.5506,225.2
55.5677,270.5
55.5716,19
55.5726,149.4
55.5783,599.6
55.6013,340.7
55.6052,300.2
55.6097,195.1
55.6154,396.8
55.6234,577.5
55.6279,90.2
55.6303,314.9
55.6425,159.2
55.651,287.1
55.6608,115.5
55.6797,21
55.6976,249.9
55.7109,152
55.7133,16.1
55.7275,576.5
55.7458,307.7
55.7474,164.9
55.7611,330.4
55.7738,206.7
55.786,368.7
55.7994,623.5
55.8004,190
55.8188,110.6
55.821,16.6
55.8307,407.1
55.8391,141.4
55.8479,250
55.8856,442.1
55.893,176.3
55.8949,118.8
55.9014,615.3
55.9048,296.6
55.9074,122.6
55.9177,291.9
55.9284,484.7
55.943,145
55.9501,16.5
55.9546,249.7
55.9624,170.7
55.9811,423.4
55.9841,182.8
56.0036,25.7
56.0094,15.1
56.036,343.8
56.0427,179.9
56.0457,667.4
56.0669,114.8
56.071,141
56.0836,185.6
56.1076,122.6
56.12,110.7
56.1252,153.1
56.134,19.5
56.139,621.9
56.1419,111.4
56.1817,310.3
56.1944,164.3
56.2,106.5
56.22,158.2
56.2433,172.4
56.256,132.1
56.2668,516.8
56.2679,105.7
56.2872,407.3
56.2981,154.5
56.3178,111.9
56.3213,16
56.3489,122.3
56.3575,439.9
56.3588,257.7
56.3686,210.9
56.3691,158.9
56.3742,16.6
56.3837,173.5
56.3845,135.7
56.4049,166.3
56.4207,118.7
56.4323,20.4
56.4487,192.1
56.4833,127.5
56.4846,315.4
56.4914,527.4
56.5003,141.5
56.509,281.3
56.5146,271.7
56.5556,148.7
56.5629,471.6
56.574,17.7
56.5885,272.1
56.6006,307.7
56.61,413
56.6112,206.3
56.6154,300.9
56.6402,15.7
56.6418,17.1
56.6533,163.4
56.6647,287.4
56.6848,470.4
56.6919,430.8
56.6923,223.8
56.7005,19.7
56.7146,280.1
56.7259,437.8
56.7273,531.7
56.7321,119.1
56.7392,174.7
56.7858,151.4
56.8165,119.4
56.817,237.5
56.8215,17
56.8228,223.1
56.8519,544.5
56.8597,19.6
56.8647,248.9
56.8685,17.4
56.8906,183.9
56.9129,257.2
56.9143,22.8
56.9225,166.5
56.9245,16.6
56.9259,16.7
56.9306,117
56.9379,188.9
56.9503,327.2
56.9514,435.9
56.9617,615.7
56.9731,111.1
56.9747,191.6
56.9775,218.8
57,16.7
57.0111,131
57.0176,94.6
57.0237,595.2
57.0293,16.4
57.0337,410.4
57.0415,196.6
57.0502,107.2
57.0533,114
57.0675,303.3
57.0771,113.5
57.0786,622.8
57.0851,151.1
57.0925,117.2
57.0938,298.9
57.142,406.7
57.1423,346.6
57.1433,163.6
57.1498,84.4
57.1508,471.3
57.165,307.3
57.1741,162.7
57.1966,384.6
57.2066,285
57.2132,296.6
57.2248,219.5
57.2302,207
57.2427,15.5
57.2509,229.7
57.2701,138.1
57.2758,433.2
57.2812,658.5
57.3086,228.3
57.3193,171.6
57.322,577.9
57.3446,20.4
57.3521,21.5
57.3662,370.1
57.3742,127.1
57.3917,325.7
57.4166,17.3
57.4331,433.2
57.4369,410.6
57.4416,19.4
57.4511,237.8
57.4514,394.2
57.4628,349.3
57.479,111.3
57.5005,738.7
57.5125,664.6
57.5191,14.7
57.5243,385.8
57.5381,198.9
57.5542,158.4
57.5568,759.1
57.5623,280.2
57.566,166.5
57.5688,667.8
57.5958,694.2
57.6201,282.8
57.6272,15.7
57.6294,266.8
57.6335,266.9
57.6426,121.6
57.6471,561.1
57.6532,757.7
57.6624,16.3
57.6777,330.9
57.6867,22
57.7203,152
57.734,87.2
57.7441,354.5
57.7591,393.2
57.7842,30.3
57.7884,22.7
57.7984,529.5
57.8023,118.7
57.8059,193.5
57.8078,16.6
57.8277,308.8
57.8302,255.4
57.8342,642.2
57.8494,130.9
57.8588,164.3
57.8597,165.5
57.8642,242.6
57.8777,151.5
57.8999,16.6
57.9181,335.5
57.9205,102.8
57.9235,426
57.9282,350
57.9318,151.2
57.9367,262.7
57.9445,323.6
57.9588,144.2
57.9781,241
57.9802,716.1
57.9819,779.4
57.9826,18.4
57.9835,213.4
57.9966,127.5
57.9999,409.3
58.0035,380.4
58.0123,171.5
58.0164,137
58.0228,377.3
58.0293,162.4
58.0348,160.1
58.0464,20.1
58.0632,367
58.0781,19.6
58.0808,16.7
58.0842,428.6
58.0925,719.6
58.1013,167.3
58.1135,156.2
58.1297,324.7
58.1346,126.8
58.1409,543.5
58.1579,21.6
58.1624,151.3
58.1659,15.3
58.1715,317.6
58.2068,268.1
58.208,125
58.2211,172.7
58.2239,324.8
58.2285,201.1
58.2439,511.1
58.2491,30.4
58.2534,130.2
58.2761,127.4
58.2836,426.7
58.2937,155
58.3157,19.6
58.3225,429
58.3385,341.9
58.3435,20.6
58.3481,458.5
58.3531,118.2
58.3538,139.8
58.3545,20.4
58.3559,288
58.361,284.1
58.3776,401.7
58.4209,115.7
58.4272,331
58.433,28
58.4465,124
58.4729,211.4
58.4838,214.7
58.4934,16.9
58.4969,339
58.5068,439.3
58.5195,241
58.5242,528.8
58.5244,544.6
58.5422,158
58.5457,597.6
58.551,191
58.5525,274
58.5588,139.4
58.5701,415.1
58.5726,223.3
58.5774,16.6
58.5826,167.6
58.6077,268.3
58.6103,276.4
58.6254,176.8
58.6612,230.1
58.6751,153.3
58.6807,450.2
58.6967,179.3
58.7233,220.3
58.7247,111.7
58.7421,112.9
58.7513,162.6
58.7524,385.6
58.7541,15.7
58.7719,363.5
58.8108,112.5
58.8162,427.8
58.8272,159.2
58.8407,306.9
58.8741,150
58.8756,485.5
58.903,633
58.91,725.5
58.9182,109.2
58.9497,145.1
58.9505,20.3
58.9513,334.8
58.9542,15.4
58.9563,378.1
58.9783,162
58.9884,132.3
58.9907,174.8
58.9956,152.5
58.9973,267
59.013,189.7
59.0227,162.4
59.0378,329.3
59.064,326.6
59.0652,453
59.0767,20.5
59.091,333.8
59.0914,335.4
59.1088,226.5
59.1125,599
59.1236,259.4
59.1353,167.5
59.1665,138.1
59.1736,242.1
59.1777,312.5
59.1894,646.9
59.2126,344.3
59.224,197.1
59.2263,169.5
59.2296,17.9
59.2333,19.1
59.2464,106
59.2501,16.1
59.2515,173.6
59.2538,407
59.2644,183.7
59.2746,116.4
59.2845,113.2
59.2939,16.6
59.3329,697.8
59.3384,20.7
59.3521,141.2
59.3749,206.6
59.3845,363
59.3865,136.7
59.3919,298.5
59.4011,117.2
59.4082,323
59.4157,374.5
59.4191,212.8
59.4234,466.2
59.4304,109.5
59.4334,187
59.4375,210.2
59.4388,445.5
59.4394,297
59.4527,281.2
59.4574,296.7
59.4607,183.5
59.4613,368.8
59.463,130.4
59.465,493.4
59.4787,112.2
59.4802,160
59.4925,158.4
59.4981,387.6
59.4992,203.4
59.5095,15.1
59.5117,409.4
59.5205,102.5
59.5234,114.7
59.5309,175
59.5381,126.3
59.546,176.4
59.5487,348.9
59.5515,562.1
59.5528,246.6
59.5576,581.8
59.5626,259.9
59.5636,114.3
59.5743,582.1
59.5748,154.9
59.5863,243.4
59.5947,17
59.6022,347.3
59.6034,453.8
59.6049,107.8
59.6532,186.4
59.655,17.2
59.6714,281.3
59.7184,216.2
59.7328,243.1
59.7401,432.3
59.7672,288.7
59.7909,699.6
59.7942,369.2
59.7959,331.4
59.7998,17.1
59.8257,126.2
59.8419,170
59.8503,278.6
59.8528,315.7
59.8582,143.8
59.8721,374.6
59.8744,163.4
59.8748,597.3
59.8759,312.1
59.8821,170.7
59.8952,227.3
59.9208,280.5
59.9244,108.2
59.9278,130.1
59.955,16.7
60.0076,200.2
60.012,128.4
60.0375,207.9
60.0492,177.3
60.0555,152.2
60.0669,348.2
60.0875,161.3
60.0906,21.3
60.0939,649.1
60.1099,535.5
60.1121,15.9
60.1133,144.7
60.1333,370
60.1496,15.7
60.1628,555.9
60.1723,18.5
60.1853,623.1
60.2075,267.6
60.2129,137
60.2262,333.5
60.2389,208.9
60.2476,164.6
60.255,201.7
60.2816,500
60.2898,248.5
60.2959,314.6
60.3057,290.3
60.3065,171.5
60.3106,278
60.3337,214.7
60.3357,123
60.3386,268.1
60.347,132.7
60.3669,275.2
60.3863,283.1
60.39,129.1
60.4093,148.8
60.418,196
60.4193,20.7
60.4215,275.2
60.4241,366.1
60.4385,358.9
60.4478,20.6
60.4524,189.7
60.4734,408.9
60.4764,17.2
60.4855,408.6
60.4879,400.8
60.4935,157.2
60.4959,164.9
60.5366,461.8
60.5422,157.4
60.5449,376.9
60.5509,484.8
60.5568,309.8
60.5661,82.2
60.5711,397.7
60.5792,90.1
60.5971,194.1
60.6117,376.4
60.6304,635.3
60.6332,170
60.6422,322.9
60.6479,138
60.6546,610.7
60.6751,244.8
60.6868,117
60.6895,120.4
60.7041,166.8
60.7079,114.4
60.7311,115.5
60.7561,206.3
60.7656,431.3
60.7703,439.2
60.7762,184.5
60.7768,222.2
60.781,536
60.7811,534.3
60.7936,237.1
60.7979,227.8
60.8006,273.2
60.8062,134.3
60.8099,119.1
60.8476,133.8
60.8515,332
60.8546,320.3
60.8653,654.5
60.8657,440.9
60.8922,302.3
60.905,399.8
60.9094,98.2
60.9101,331.2
60.9138,154.2
60.9266,361.6
60.9378,145.6
60.9627,18.4
60.9744,196.2
60.9843,149.4
60.9996,19
61.0013,163.9
61.0189,27.7
61.0278,229
61.0356,234.5
61.0552,175.3
61.0611,20.1
61.0697,357.1
61.0843,145.5
61.0944,525.1
61.0973,490.6
61.1027,682.9
61.1105,18.1
61.1128,211.6
61.1712,236.2
61.1963,512.4
61.1999,677.5
61.2005,260.1
61.2025,341.1
61.2035,136.3
61.2105,274.1
61.2308,626.6
61.2431,124.1
61.2541,312.3
61.2604,189.7
61.2632,555.3
61.2694,206.1
61.2769,191.5
61.2852,608.5
61.2878,159.4
61.3234,296.9
61.3246,147
61.3815,690.7
61.3947,206.5
61.3979,664.3
61.4044,196.1
61.4439,226.2
61.4504,348.7
61.4541,175.4
61.5059,123.4
61.5094,175.2
61.5163,213.5
61.5202,179.9
61.5381,378.6
61.551,360
61.5773,92.2
61.5826,245.4
61.5961,20.3
61.5968,19.7
61.6066,434.7
61.6329,428.3
61.6426,17.8
61.6504,573.3
61.6725,354.5
61.6785,502.1
61.6896,16.8
61.6923,236.3
61.6973,345.6
61.6989,238.3
61.7009,107.8
61.7031,294.3
61.7066,20.5
61.7219,656.5
61.7561,162.6
61.7771,37.6
61.787,214.3
61.7903,162.9
61.8049,522.9
61.8163,16.6
61.835,16.2
61.8471,181.9
61.8637,424.7
61.8986,166.8
61.8988,177
61.899,194.1
61.9006,432.9
61.9043,334.5
61.9123,174.5
61.916,18.1
61.9255,15.8
61.9752,146.1
61.9911,20.2
62.0048,19.5
62.0195,316.3
62.0634,291.7
62.0739,324.1
62.0839,456.9
62.1274,136.8
62.1343,21.2
62.1367,503.7
62.1407,232.6
62.1442,524.7
62.182,18.6
62.239,280.4
62.2477,113.4
62.2555,355.5
62.2677,188.7
62.302,113.4
62.3211,434.3
62.323,299.1
62.3261,172
62.3338,19.9
62.3386,226.4
62.3878,381.8
62.4101,442.6
62.4161,18.4
62.4319,107.5
62.4354,394.2
62.4399,16.7
62.4406,17.9
62.4476,95.9
62.4496,124.3
62.454,128.8
62.4627,283.1
62.4769,164
62.4787,145.1
62.4859,17.6
62.4925,220.7
62.4973,419.4
62.5131,550.1
62.526,534
62.5303,305.7
62.547,120.3
62.5619,246.6
62.5664,303.8
62.568,182.9
62.5691,175.3
62.5852,395.1
62.6079,360.5
62.6083,118.5
62.6096,317.7
62.6507,289.5
62.6537,641.2
62.6927,172.4
62.6963,122.6
62.7036,411.7
62.7116,377.4
62.7156,132.1
62.744,18.6
62.7579,18
62.7865,131.8
62.8001,18.4
62.803,211.9
62.8286,586.1
62.8314,181.9
62.8368,557.8
62.8448,466.4
62.8895,19.8
62.9274,480.6
62.9284,115.4
62.9373,347.9
62.9497,255.7
62.961,105.9
62.9808,506.6
62.9819,352.7
62.9825,404.2
62.9945,345.5
63.0019,21.6
63.0344,105.8
63.0505,17.2
63.0552,92.2
63.0615,160.1
63.098,121.7
63.1212,205
63.1793,19.4
63.1934,104.2
63.1952,224.5
63.21,365.7
63.2768,460.5
63.278,112
63.2937,328
63.3173,178.5
63.3212,787.2
63.3435,220.6
63.3495,17.8
63.3519,145.3
63.3524,16.1
63.3852,232.9
63.3904,229.8
63.4036,617
63.4093,534.9
63.435,134.5
63.4413,188.2
63.4595,481.3
63.4806,215.5
63.4974,357.7
63.4989,170.7
63.502,117.1
63.5216,923.3
63.542,280.2
63.5786,17.9
63.5986,299
63.6041,17.4
63.6125,634.8
63.6408,122.7
63.6586,22
63.6654,291.7
63.6715,22.7
63.6753,15.5
63.6809,192
63.6895,262.2
63.7041,876.5
63.7055,25.4
63.7071,18.3
63.7129,143.6
63.7174,860.3
63.7327,709.6
63.747,17.5
63.7806,197
63.7885,223.2
63.7966,142.7
63.8095,152.5
63.8118,212.4
63.8141,184.7
63.8223,477
63.8332,126.1
63.8415,115.3
63.8483,723.5
63.8584,99
63.88,338.4
63.8807,17.2
63.8813,384.7
63.9052,326.5
63.9543,16.8
63.9739,18.2
63.9762,16
63.9842,233.6
64.0245,17.7
64.0296,109.7
64.0501,109.3
64.0627,232.1
64.0681,744.9
64.0853,358.3
64.0895,209.5
64.0931,133.5
64.106,109.1
64.1063,126.6
64.1159,258.7
64.1161,379.6
64.1163,351.9
64.121,629.8
64.127,257.8
64.1369,16.1
64.1755,175.5
64.1803,290.6
64.1839,286.3
64.2356,179.1
64.2517,205.2
64.2544,236
64.2588,17
64.2593,294.7
64.2661,424.4
64.2707,297.4
64.2855,17.9
64.2963,19.9
64.3199,172.5
64.3437,347.8
64.3573,182.4
64.3577,17.3
64.3624,118.8
64.3687,427.9
64.3708,169
64.3875,173.5
64.3889,409.5
64.3977,315.9
64.398,312.1
64.3993,119.4
64.4008,20.6
64.4181,16.3
64.4394,178.7
64.4471,152.4
64.4476,358.2
64.4668,207.8
64.4699,278.5
64.4857,19.6
64.4891,215.7
64.4905,333.8
64.5075,571
64.5457,208.8
64.5595,771.4
64.5681,140.7
64.5763,18.1
64.602,21.6
64.6051,472.8
64.608,15.8
64.6109,459.5
64.6218,224.1
64.6238,164.9
64.6698,394.5
64.7002,445.3
64.7215,154.7
64.7422,699.2
64.7674,617.4
64.7803,213.4
64.8401,454
64.8489,17.4
64.8661,324.2
64.8873,415
64.9041,631.3
64.9182,227.1
64.9226,365.3
64.9242,19.7
64.9262,309.3
64.9361,455.6
64.9432,415.2
64.9478,467.5
64.9594,252.9
64.9597,366.3
64.9622,390.8
64.9752,298.4
64.9907,158.7
65.0036,174.2
65.0075,374.6
65.0149,195.2
65.0179,17
65.0321,18.6
65.0489,257.7
65.0715,601.1
65.0842,178.4
65.0938,205.5
65.105,422.5
65.1082,83.2
65.1183,255.2
65.1207,252.8
65.1295,386
65.1398,112.8
65.1463,101.9
65.1591,576.5
65.1761,1024.9
65.2204,458.8
65.2237,477.9
65.2253,136.4
65.2267,328
65.2332,165.6
65.2363,458.6
65.2593,374.1
65.2709,415.8
65.2775,271.3
65.2818,260.4
65.2905,16.5
65.3424,704.1
65.3457,475.8
65.358,97.3
65.3701,132.6
65.3753,17.7
65.3817,281.6
65.3875,244
65.4016,181.3
65.4069,137.1
65.4095,114.6
65.4126,150.5
65.4368,253.3
65.4467,18.9
65.5033,194.1
65.5422,18.2
65.5465,99.3
65.548,511.1
65.5506,169.3
65.5697,407.8
65.5737,462.1
65.5919,124.1
65.6235,268.7
65.6252,188
65.6308,320.5
65.6344,122.7
65.6421,106.9
65.6601,159.2
65.668,16.5
65.6689,25.9
65.6739,477.2
65.6918,341.6
65.7013,259
65.7176,205.4
65.7197,17.6
65.727,559.6
65.7283,637.3
65.7363,18.4
65.7999,202.9
65.8016,322.3
65.8056,136.6
65.8081,176
65.8214,692.9
65.8287,95.3
65.8386,19.7
65.8477,165.7
65.8554,193.4
65.8626,202
65.909,192.8
65.9286,300.5
65.9334,463
65.9459,111
65.9504,353.5
65.9513,171.5
65.9741,408.3
66.0001,312.6
66.0325,222.7
66.0336,309.6
66.0565,366.7
66.0609,158.3
66.0685,226.6
66.078,558.1
66.0783,394.6
66.0881,170.5
66.1206,747.2
66.1519,156.8
66.1826,296.1
66.2121,157.1
66.2193,272.1
66.2416,129.6
66.2427,18.7
66.2478,165.9
66.2483,199.5
66.2661,117.5
66.282,303.7
66.2877,122
66.3113,171.4
66.3199,166.2
66.3258,137.8
66.3445,148.9
66.3516,410.1
66.3571,16.3
66.3691,151.6
66.398,153.3
66.4083,176
66.41,19.9
66.4239,297.8
66.4335,212.4
66.4425,344.1
66.4475,18.2
66.4779,324.4
66.479,302.7
66.4901,546
66.504,179.6
66.5183,717.3
66.5518,172.6
66.5595,185.8
66.5681,17.4
66.5778,175.4
66.5825,411.8
66.5881,566.6
66.6025,280.8
66.6097,171.3
66.6134,186.8
66.6435,317.1
66.6608,19.9
66.6733,134.6
66.71,336.5
66.7145,1066.6
66.7191,425.2
66.7259,764.4
66.7658,163.3
66.7709,16.3
66.7945,288.7
66.7955,183
66.8576,399.2
66.9218,201.4
66.9232,630.6
66.9296,256
66.932,259
66.9368,380.7
66.9516,385.7
66.9902,266.8
66.9913,168.7
66.9919,17.6
66.9937,17.3
66.9943,95
67.0098,18.1
67.0278,593.3
67.0279,592.6
67.0539,78.3
67.0723,18.5
67.0929,143.7
67.1179,19.8
67.1212,15.6
67.1448,811.1
67.1494,105.1
67.1797,141.9
67.2175,157.8
67.2287,15.6
67.2469,180.2
67.2723,16.4
67.2891,126
67.2934,162.8
67.299,180.9
67.3047,141.3
67.3204,456.7
67.3216,106.4
67.3274,301.3
67.3465,176.7
67.3609,388.7
67.3661,530
67.3686,151.3
67.3756,16.9
67.3849,98.5
67.3948,16.8
67.4141,189.9
67.4405,187.1
67.4424,427.2
67.47,182.1
67.4711,216.7
67.4734,20
67.492,383.3
67.4985,288.3
67.5073,110.9
67.5094,278.4
67.5252,317.5
67.528,19.1
67.5544,178
67.5574,315.9
67.5733,150.8
67.5754,568.4
67.5894,360.7
67.6012,172.7
67.6032,289.1
67.614,318.6
67.6173,1021.1
67.624,430.6
67.63,139.9
67.6345,162.6
67.6387,157.4
67.659,198
67.6742,239.9
67.6831,229.2
67.6846,471.2
67.6922,679.7
67.6938,17.5
67.7056,569.3
67.7524,274.1
67.7597,734.5
67.7666,261.2
67.7767,18.8
67.7781,298.2
67.7783,505.2
67.7785,472.1
67.7902,137.4
67.8016,637.1
67.8093,520.3
67.8103,259.9
67.8213,309.8
67.8357,591.6
67.8405,424.1
67.8464,425.1
67.8474,202.5
67.8521,191.9
67.8576,147.1
67.8585,244
67.8812,195.9
67.891,19
67.9218,19.6
67.9225,181.2
67.9244,295.9
67.9612,364.5
67.9677,117.9
67.9701,755.8
67.9808,204.4
68.0171,21.1
68.0193,310.5
68.0241,225.6
68.0736,148.7
68.0858,710.3
68.0964,205.3
68.0967,225.2
68.1292,357.1
68.137,183
68.1489,742.2
68.1607,411.6
68.195,21.1
68.2017,129.4
68.2758,127.2
68.2765,270.8
68.2867,190.3
68.2988,108.9
68.3254,205.1
68.3768,16
68.3796,140.6
68.3978,262.8
68.4102,269.5
68.4126,250.9
68.4143,147.9
68.4584,22.5
68.464,20
68.4705,494
68.4712,18.9
68.4926,152.4
68.4973,176.4
68.4992,269.8
68.5091,719.8
68.5135,17.1
68.5341,307.3
68.5392,332.8
68.5407,154.7
68.5567,321
68.5667,164.2
68.5779,739.8
68.5823,580.3
68.5946,21.6
68.608,299.6
68.6196,133
68.6315,23.3
68.6321,139.4
68.6389,16.7
68.6459,214.4
68.674,176.9
68.6775,181.8
68.7432,303.5
68.7475,174.7
68.7518,17.3
68.7559,122.5
68.7983,241.8
68.8301,240.6
68.8348,174
68.8608,103.9
68.8765,125.1
68.889,207.5
68.8985,242.8
68.921,15.2
68.9328,436.7
68.9378,117.7
68.9514,273.8
68.9562,188.1
68.971,107.6
68.9947,193.6
69.0064,152.5
69.0141,222.6
69.0259,372
69.0343,267
69.0519,163
69.0674,222.5
69.0751,20.4
69.0806,21.8
69.0816,20.3
69.0907,141.9
69.1108,589.9
69.1338,684.3
69.1584,335
69.2071,429.3
69.2125,174.2
69.2363,125.2
69.2413,141.5
69.244,172.8
69.2489,163.5
69.2874,413.1
69.3012,245.2
69.3026,146.3
69.3052,15.7
69.3193,136.8
69.335,222.2
69.3401,369.1
69.3444,128
69.3855,140.7
69.3861,97.5
69.3962,91.3
69.4421,436.6
69.4547,174.4
69.4886,162.6
69.4912,333.8
69.5281,179.9
69.5289,755.8
69.5442,159.5
69.5518,598.8
69.5557,164
69.5587,457.6
69.5607,496.5
69.5696,181.6
69.6318,18.8
69.6385,121.5
69.6641,362.2
69.6724,141.1
69.7094,597.6
69.7528,124.6
69.7535,17.2
69.7691,17.2
69.7866,155.7
69.8239,329.8
69.8558,614.6
69.8678,335.6
69.871,127.1
69.8783,384.5
69.8836,142.9
69.9094,20.9
69.9238,500.4
69.9276,204.4
69.9402,18.1
69.9428,302.6
69.9792,18.3
69.9813,298.1
69.9833,129.6
69.9907,171.4
69.996,15.5
70.0014,627.2
70.0031,173.3
70.0076,596.5
70.014,739.1
70.0178,274.8
70.0208,320.8
70.0245,165.8
70.0351,496.5
70.0374,146.4
70.0474,19.6
70.0499,129.1
70.063,156.6
70.0649,179.5
70.0664,329.3
70.0729,608.7
70.1087,251.4
70.1158,204.7
70.1199,119.4
70.1285,168.9
70.1321,18.1
70.1437,297
70.1476,761.6
70.2232,111.4
70.2331,24.7
70.2526,801.4
70.2584,276.9
70.2757,258
70.2821,21.1
70.2842,113.3
70.3291,189.7
70.3317,574.6
70.3556,144.4
70.3618,171
70.3693,228.7
70.3759,18.8
70.383,125
70.3931,582.5
70.3987,392
70.4016,198.9
70.4221,301.5
70.4234,153.2
70.4298,16.5
70.4378,19.9
70.4403,584.4
70.4605,15.9
70.4609,178.4
70.4699,351.4
70.494,442
70.5146,169.4
70.5155,179.9
70.5238,22.6
70.5246,236.5
70.5377,144.5
70.5603,170
70.5626,17
70.6023,238.4
70.61,634.9
70.6168,492.9
70.6262,144.5
70.6497,235.1
70.6534,709.3
70.6776,16.2
70.6782,152.4
70.6995,455
70.7198,299.3
70.7459,236.2
70.7673,180.7
70.797,308
70.8088,162.6
70.8258,15.9
70.827,262.3
70.8792,242.8
70.8811,288.8
70.9265,131.7
70.9496,190
70.9725,272.7
70.9783,388.8
70.9797,377.6
71.0046,112
71.0072,19.1
71.028,15
71.0696,19.2
71.0705,265.6
71.0751,17.3
71.0893,299.7
71.1136,132.5
71.1245,16.7
71.1802,164.7
71.1896,22.5
71.1924,20.1
71.1931,17.6
71.1998,170.6
71.2086,361.5
71.2121,682.6
71.2277,22
71.2329,172.1
71.2379,20.9
71.2445,230.8
71.2757,423
71.279,125.4
71.2908,402.1
71.2934,198.3
71.3023,461.1
71.349,122.9
71.3616,594.9
71.3743,18.5
71.3749,276.3
71.38,19.6
71.3811,403.8
71.3871,19
71.392,171.5
71.394,293.2
71.4006,17.1
71.4404,186.8
71.4459,15.3
71.4522,170.4
71.467,144.8
71.4677,370.5
71.4699,267.3
71.471,363.4
71.4806,686.4
71.4842,162
71.5035,261.1
71.505,285.8
71.5087,17.2
71.5572,18.7
71.5804,122.1
71.5952,188.1
71.6078,703.7
71.6176,262.7
71.6231,405.7
71.6286,286.5
71.6312,286.6
71.6318,266.6
71.7012,278.4
71.7172,25.6
71.7328,278.3
71.7354,163.6
71.7355,151.4
71.7358,148.5
71.7532,652.9
71.8084,125.3
71.8831,716.5
71.9006,500.3
71.9061,16.3
71.9138,301.3
71.9162,17
71.9188,142.5
71.9259,585.9
71.9489,16.5
71.9509,518.5
71.96,301.4
71.9608,94.6
71.9728,867.3
72.0023,412.9
72.0065,373.2
72.0096,350.9
72.0179,353.2
72.0227,353.8
72.0298,350.8
72.0664,153.2
72.0795,578.7
72.0805,388
72.0903,306.7
72.1088,587.6
72.1165,385.4
72.136,15.9
72.1417,173.5
72.1427,291.5
72.1433,277
72.1581,160.4
72.1773,760.4
72.1793,183.8
72.1858,127.1
72.1955,126.5
72.2008,20.3
72.2087,123.4
72.2109,236.6
72.2124,30.3
72.214,26.3
72.2192,20.4
72.2204,565.6
72.2211,26.3
72.2231,484.3
72.2241,730.9
72.225,1382.2
72.2258,1492.5
72.227,1205.7
72.2287,1443.6
72.2293,999.5
72.23,1541.5
72.2312,2514.2
72.2324,2452.8
72.2333,2421.5
72.2347,3702.2
72.2358,2227.8
72.2365,2262.4
72.2375,2051.1
72.2379,1883.1
72.2384,1972.5
72.2392,2434.3
72.2396,2883.4
72.24,2838.6
72.2408,2513
72.2411,2292.1
72.2423,1770.3
72.2437,3831.9
72.2447,2364.3
72.2451,2322.1
72.2453,2278.6
72.246,871.2
72.2469,287.8
72.2478,1275.4
72.2483,942.4
72.2503,803.9
72.2516,519.4
72.2526,614.8
72.2751,252.7
72.2788,744.3
72.3574,254.1
72.3632,306.5
72.3898,315.3
72.429,23.1
72.4326,119.2
72.4474,315.3
72.4819,479.4
72.4934,293.4
72.5056,416.8
72.506,371.1
72.5229,229.5
72.5273,331.8
72.5313,127.1
72.5812,176.3
72.5856,164.1
72.5889,313.4
72.5918,239.1
72.6175,16.6
72.6251,16.2
72.6308,343.6
72.6473,133.4
72.6486,189.2
72.6527,128.2
72.6961,471.8
72.7354,386.8
72.7425,223.3
72.7468,143.1
72.7629,352.1
72.7801,18.8
72.8015,286.6
72.8287,465.9
72.8461,521.1
72.8489,296.1
72.8639,230.9
72.8653,109.1
72.8753,273.5
72.8767,144.7
72.8871,284.6
72.8894,100
72.9122,636.2
72.9342,19
72.9368,1345.1
72.942,158.7
72.98,17.6
72.9833,252.6
72.9965,304
73.0016,131.3
73.0031,711.2
73.0181,155.5
73.0222,18.1
73.0569,120.8
73.0659,16.9
73.0853,544.6
73.0874,329.3
73.0959,332.1
73.1099,20.2
73.1156,371.7
73.1212,183.1
73.1305,145.8
73.151,17.4
73.1672,858.9
73.1944,151.7
73.2137,297.8
73.2244,149.1
73.2263,184.2
73.2569,404.1
73.2589,129.7
73.2646,108.8
73.2653,17.2
73.2701,129.4
73.2756,15.6
73.29,207.4
73.2933,655
73.3037,22.8
73.3217,313.9
73.3252,268.7
73.3352,258.8
73.3579,351.4
73.3734,128.7
73.4092,372
73.4202,134.4
73.4242,15.3
73.44,282.5
73.4436,186.2
73.477,202.6
73.5026,17.7
73.5249,138.8
73.5357,136.1
73.5579,411.2
73.5631,677
73.6262,144.1
73.6577,116.8
73.6602,521.8
73.6648,20.3
73.701,276.7
73.7121,182.5
73.7292,89.7
73.7334,411.7
73.7362,21.8
73.7436,252.9
73.7465,256.8
73.7782,322.8
73.7803,120.4
73.8238,203.2
73.837,118
73.8797,662.7
73.924,18.6
73.9272,100.4
73.9285,539.4
73.9357,205.7
73.9501,271.6
73.9541,19.4
73.9593,164.8
73.9664,139.5
73.9755,451.7
73.9984,192.1
74.0094,605.3
74.0123,584.4
74.0217,180.6
74.0276,159.6
74.0451,470.9
74.0598,318.3
74.0783,369.4
74.0932,318.1
74.1034,201.4
74.1103,199.8
74.1112,330.6
74.1197,316.1
74.1657,528.6
74.1709,355.6
74.1874,204.1
74.1899,501.6
74.1921,488.1
74.2082,549.3
74.2291,121
74.2731,180.5
74.3036,17.2
74.3267,311.4
74.3321,115.4
74.3366,309.4
74.3385,143.1
74.3409,17.8
74.3537,172
74.3715,216.4
74.3742,404.3
74.412,343.6
74.4136,509
74.4166,312.9
74.426,18.8
74.435,264
74.4371,409.4
74.4388,334
74.446,299.8
74.4503,252.5
74.4569,468.4
74.4586,110.1
74.4659,398.2
74.4743,156.5
74.5003,19
74.506,145.2
74.5089,120.2
74.5186,17.7
74.5267,23.8
74.5474,18.8
74.5704,16.6
74.5918,16.5
74.6112,737.1
74.6197,341.5
74.6285,223.1
74.64,324.6
74.6563,241
74.6734,112.3
74.6779,240.4
74.684,633.2
74.6846,22.7
74.7044,20.8
74.7092,245.9
74.7129,863.5
74.7162,742.8
74.7561,152.6
74.7654,264.4
74.7668,162.5
74.7806,620.4
74.7863,26
74.791,348.3
74.8055,130.2
74.8101,329.5
74.8115,334.4
74.8295,735.8
74.8646,15.5
74.8663,218.2
74.8676,513.9
74.8701,845.8
74.8812,166.9
74.8911,169.2
74.894,454.2
74.9105,22.6
74.9439,18.9
74.9567,651.7
74.9605,485.2
74.9729,219.8
74.9902,274.3
75.0005,364.5
75.0178,16.6
75.0228,15.6
75.0407,299.8
75.0555,153.2
75.0595,121.4
75.0744,208.5
75.1255,199.1
75.1288,704.1
75.1525,118.9
75.1552,136.5
75.1559,19.2
75.1615,161.2
75.1759,322
75.1842,250
75.2163,674.3
75.2281,16.7
75.2425,229.8
75.27,253.1
75.2764,293.1
75.3089,165.4
75.3127,647
75.3289,17.1
75.334,288.7
75.3389,159.1
75.3397,153.7
75.3465,17.5
75.3548,222.5
75.3601,219.2
75.3655,117.2
75.3811,266.5
75.3912,15.6
75.3989,145.3
75.414,194.2
75.4326,259.8
75.4565,120.1
75.4575,249.8
75.4622,198.3
75.484,322.7
75.49,205.7
75.5119,17
75.5282,398.7
75.5534,137.5
75.5669,17.9
75.582,182.1
75.5892,89.7
75.5995,178
75.6005,449.4
75.6041,20.5
75.6106,295.2
75.6225,440.8
75.6332,18
75.6625,314.6
75.6733,20.5
75.6744,170.1
75.6881,131.2
75.7197,238.6
75.7211,19.9
75.7354,239.5
75.736,110.5
75.7368,424.8
75.7665,169.9
75.7855,208.3
75.7964,126.8
75.7996,418.2
75.8311,582.9
75.8364,314.5
75.8447,127.7
75.8618,19.6
75.8801,190.2
75.8837,154
75.9098,763.1
75.9145,465.8
75.9279,601
75.9388,385.2
75.9639,237.4
75.9762,166.2
76.013,489.9
76.0555,157.5
76.0619,303.7
76.1054,200.7
76.1271,585.8
76.1344,20.9
76.1375,333.8
76.1574,141.9
76.1608,172.9
76.1615,222.2
76.1633,286.8
76.1926,20.5
76.2018,134.6
76.2186,16.6
76.2203,139.3
76.2257,189.4
76.2267,312.2
76.2287,243
76.2668,458.7
76.2845,286.2
76.2933,17.4
76.3171,115.2
76.3463,144.4
76.3503,504.4
76.3773,230.5
76.4081,404.1
76.4406,17.3
76.4511,465.1
76.4698,223
76.4937,165.6
76.5535,392.3
76.6636,326.3
76.6668,17.6
76.7007,744.8
76.7217,164.2
76.7384,163.9
76.7395,18.9
76.7402,450
76.7409,578.1
76.753,199.4
76.7564,369.3
76.7566,375.2
76.7586,215.4
76.7812,178.6
76.7819,148.6
76.7827,273.6
76.7991,463.8
76.805,99.8
76.8175,171
76.8181,671.5
76.8312,395.5
76.833,376.6
76.8562,420
76.8635,290.8
76.8648,180
76.8667,179.1
76.8914,18.2
76.9015,117.4
76.953,19.7
76.9576,19.9
76.9737,739.2
76.9977,367.2
77.0179,476.4
77.0351,183.4
77.036,122.3
77.0383,105643.1
77.0403,27.5
77.0659,471.7
77.0887,21.4
77.0983,356.2
77.1076,229
77.1115,17.8
77.1418,249.3
77.1637,666.8
77.1784,122.9
77.1914,128.9
77.2044,455.7
77.2596,222.2
77.2648,260.8
77.286,227.8
77.2961,640.2
77.3078,185.7
77.3296,128.4
77.3319,273.3
77.339,413.7
77.3466,320.7
77.3619,158.3
77.3991,183.8
77.4588,266.3
77.4803,226
77.5032,455.6
77.5234,442.6
77.5604,316.5
77.5924,20.1
77.6114,233.1
77.6234,392
77.64,18
77.6779,233
77.6852,516.7
77.7001,172.4
77.7143,129.4
77.7315,261.5
77.7381,93.5
77.7494,275.1
77.7537,242
77.7624,311.5
77.7732,499.3
77.7786,359.1
77.7814,179.2
77.7865,297
77.8435,225.4
77.8744,537.1
77.8867,18.2
77.8915,329.5
77.8948,17.4
77.923,433.7
77.9238,643.1
77.9459,700.2
78.0153,134.5
78.0216,403.5
78.0416,2008
78.0768,145.1
78.092,647.1
78.1015,321.4
78.1075,324
78.1116,252
78.1175,169.9
78.1213,315.5
78.1341,555.5
78.1351,116.9
78.1392,133.4
78.1447,254.6
78.1549,262.6
78.1555,131.3
78.1727,273.3
78.2189,368.4
78.2555,118.2
78.2623,152.2
78.2821,185.1
78.2912,720.3
78.3676,187.7
78.376,224.1
78.4055,377.2
78.4198,196.3
78.4256,265.3
78.4384,620.2
78.4427,20.8
78.4469,163.7
78.4536,365.6
78.4698,128.8
78.48,262.8
78.4944,430.3
78.508,152.2
78.5109,137.4
78.5142,351.9
78.522,219.8
78.5314,250.9
78.5354,456.2
78.5675,155.3
78.5682,344.7
78.5757,19.1
78.5945,164.2
78.6076,401.9
78.6122,26.2
78.7174,177.4
78.7232,96.6
78.7377,776.3
78.7425,17.5
78.7457,228.3
78.7773,329.4
78.7921,127.2
78.8095,274
78.8258,230.8
78.8283,588.1
78.8672,16.7
78.8749,301.4
78.8805,241.2
78.8845,20.5
78.9172,15.8
78.9213,363.1
78.9373,417.7
78.996,197.5
78.9968,103.9
79.0446,314.7
79.0457,16.4
79.054,1329.3
79.0916,354.5
79.095,189.1
79.1164,328
79.1558,502.1
79.1881,490.1
79.2232,400.2
79.2305,165.3
79.2409,297.6
79.2591,16.5
79.2689,166.2
79.2763,152.1
79.3244,407.9
79.352,17.9
79.3628,172.1
79.3912,16.3
79.3928,180.9
79.4089,425.1
79.4186,20.9
79.4745,250.6
79.5795,17.1
79.6017,201.6
79.6428,366.1
79.6894,19.8
79.6988,481.9
79.7044,377.9
79.7172,20.7
79.7233,709
79.8052,310.4
79.8231,146.1
79.8284,181.3
79.8359,687.1
79.8604,266.9
79.8626,134.1
79.8736,167.8
79.9389,231.5
79.9485,166.2
79.9525,356
79.9625,19.1
79.9737,424.5
79.9768,214.5
79.9798,395.8
79.9878,411.2
80.0717,18.2
80.0794,121.1
80.0905,616.1
80.0998,118.5
80.1263,339.5
80.1451,17.9
80.1593,23.1
80.176,433.6
80.1936,189.4
80.1987,128
80.2114,209.6
80.2241,20
80.2378,195
80.2703,270.5
80.2946,180
80.3135,22.7
80.359,207.4
80.3854,201.2
80.4149,181.5
80.422,23.3
80.4249,365.7
80.521,168.3
80.5248,589.2
80.5636,23.2
80.5757,20.3
80.5809,18.6
80.5877,304.8
80.5975,115.2
80.6174,119.6
80.6548,19.7
80.6928,149.6
80.7124,194.3
80.7225,22
80.7547,20.8
80.7625,172.7
80.7956,117.3
80.8016,710.5
80.8089,323.1
80.8148,412.4
80.8164,201.6
80.8614,22.2
80.864,528.7
80.874,640.8
80.9044,130.2
80.9104,777.2
80.9476,58356.4
80.9504,128.9
80.9573,397.9
80.9649,133.7
80.9785,153
80.9803,250.4
81.0139,331.3
81.0696,1199.8
81.0797,159.7
81.0908,655.6
81.0914,206.7
81.1175,145.7
81.1202,288
81.1284,17.1
81.1474,201.5
81.1486,321.8
81.1678,358.2
81.1739,379
81.1747,667.4
81.1778,176.4
81.1796,186.4
81.1806,447.5
81.1983,221.6
81.2023,420.2
81.2047,261.6
81.2117,544.7
81.233,173.9
81.2446,173.1
81.2959,230.6
81.305,297.7
81.328,16.5
81.3302,296.6
81.3643,17.3
81.3778,22.2
81.398,16.8
81.4009,355.2
81.4049,19.3
81.4109,292.9
81.413,609.9
81.4185,142.8
81.431,159.9
81.4345,332.5
81.4494,219.6
81.4553,16.1
81.5234,685.7
81.5492,446.5
81.5941,172.7
81.6068,411.6
81.6324,583
81.6444,629.4
81.649,684.5
81.6925,715.3
81.7014,257.3
81.7017,249.4
81.742,364.6
81.7515,291.5
81.7761,251.6
81.7793,216.2
81.786,165.2
81.8104,288.8
81.8117,290.7
81.8136,149.7
81.8381,454.5
81.8707,18.6
81.8742,467
81.882,208.6
81.9125,727.3
81.9287,492.4
81.9327,626.2
81.9347,259.3
81.9373,157.1
81.9435,85.3
81.9492,492
81.9628,17.7
81.9754,19.7
81.997,158.8
82.0358,366.3
82.073,593.3
82.0811,501.4
82.0938,20.4
82.0952,210.9
82.1,161.1
82.11,19.7
82.1228,18.1
82.1282,175.6
82.1329,440.8
82.1545,716.2
82.1646,145.6
82.1812,310.5
82.206,115.6
82.2297,163.2
82.2576,332.9
82.2815,154.1
82.2882,267.2
82.3011,21.9
82.309,201.1
82.3258,136.6
82.3351,193.6
82.3376,21.6
82.3521,24.7
82.3555,321.5
82.3748,418
82.3962,163.3
82.4184,573.8
82.4259,17
82.4321,195.2
82.4476,124.3
82.474,763.4
82.4984,159.7
82.5052,468
82.553,218.9
82.6266,653
82.6374,123
82.6729,150.7
82.6977,169
82.7066,220.2
82.7179,618.5
82.7306,219.9
82.7367,130.3
82.7717,330.9
82.7759,294.3
82.7929,19.3
82.794,159.1
82.8178,132.8
82.8635,342.5
82.8781,18.3
82.8945,291.8
82.9123,197.2
82.9175,171.6
82.9239,170.2
82.9446,12791.5
82.9523,116.3
82.984,191.3
82.9887,263.1
82.9948,155.5
82.9992,400
83.0213,249.1
83.0315,439.1
83.0373,191.3
83.0414,19.4
83.053,23.7
83.0541,132.5
83.069,20.1
83.0853,33.1
83.0924,130.1
83.1395,213.9
83.1729,451.4
83.1749,689.8
83.2028,458
83.2063,293.6
83.2074,631.4
83.2084,16
83.2167,148.5
83.2187,840.1
83.2246,16.4
83.2332,390.6
83.2415,223.1
83.2438,17.2
83.2529,196
83.2685,18.9
83.2717,242.8
83.2785,189.9
83.2877,217.4
83.2988,252.7
83.3426,253.7
83.373,376.3
83.3782,455.2
83.3963,106.5
83.4004,390.1
83.4258,271
83.4634,21.6
83.5053,542.5
83.5296,431
83.5691,329
83.5775,394.6
83.5797,265.5
83.5921,433.4
83.598,181.6
83.6064,234.2
83.6166,245.6
83.6279,637.4
83.6731,353.1
83.6839,19
83.7039,20.9
83.7436,951.8
83.7502,185.7
83.7622,407.6
83.7676,345.6
83.7695,620.8
83.7818,282.8
83.8024,136.9
83.8109,408.8
83.8401,282.5
83.8642,302
83.8855,293.6
83.8872,256.8
83.8882,133.2
83.8992,266.3
83.9299,130.9
84.0084,190.4
84.0129,249.3
84.0327,260.5
84.0372,236.5
84.0381,123.8
84.0448,275.2
84.079,302.4
84.087,142.4
84.0925,113.1
84.095,16.6
84.0995,156.1
84.109,151.8
84.117,125.3
84.1575,446.2
84.1649,20.9
84.1888,398
84.2432,151.6
84.2536,129.2
84.26,521.8
84.2713,210.5
84.2776,172.3
84.3054,285.6
84.3116,135.2
84.3396,448.5
84.3507,211.9
84.4242,216.2
84.4293,654.5
84.4443,398.4
84.4453,18.4
84.4517,428.5
84.4954,696.8
84.531,146.2
84.5394,637
84.5418,17.9
84.5626,323.5
84.5793,407
84.5905,342.1
84.594,153.2
84.5968,369.5
84.6321,229.3
84.6549,397.9
84.6662,670.3
84.6667,697.9
84.7111,167.4
84.7136,168.7
84.7231,222.1
84.7263,180.1
84.7953,450.9
84.8091,153
84.8101,129.2
84.9377,338
84.9594,16340.1
84.9674,415.7
84.9727,111.2
84.9797,330.4
84.98,315.5
84.9898,125.9
85.0267,22.4
85.0282,650.2
85.0328,141
85.0944,149
85.0962,18.1
85.1009,23.8
85.1066,123.3
85.1276,296.8
85.1391,246.8
85.1582,227.4
85.1821,17.3
85.2036,19.3
85.2069,354.9
85.2325,273.1
85.2585,653.8
85.2669,218.1
85.2721,342.5
85.3017,21.5
85.3044,447
85.3109,362.7
85.3226,377
85.3312,260.1
85.3491,178.3
85.3503,310.4
85.3634,159.3
85.3903,495.9
85.3922,294.1
85.4097,180
85.462,620
85.4638,254
85.4803,463.2
85.4842,278.5
85.5082,311.9
85.6226,148.7
85.6613,151.8
85.6616,150.2
85.6808,496
85.703,289.9
85.7207,415.1
85.7351,177.8
85.7677,560
85.7822,114.8
85.8035,25.3
85.8591,19.5
85.8977,16.5
85.9264,145.5
85.939,151.2
85.94,711.2
85.9445,242
86.0183,504.2
86.0232,252.9
86.0276,178.6
86.0295,109.8
86.0432,503.7
86.0505,276
86.0562,117.4
86.0598,13908.7
86.0834,19.1
86.0856,419.4
86.0872,181.3
86.0962,85843.5
86.1091,304.1
86.1318,19.4
86.1377,260.7
86.1497,18.3
86.1739,185.6
86.2259,172.3
86.2294,152.4
86.2988,198.2
86.3007,279.3
86.3492,15.5
86.3571,202.6
86.3734,264
86.3803,320.9
86.381,248.3
86.3982,215.2
86.409,154.6
86.4287,212.8
86.4311,210.7
86.4611,784.4
86.4697,131.4
86.4842,16.9
86.4881,131.6
86.5536,587.1
86.5581,666.5
86.5714,373.2
86.574,172.2
86.5944,363.7
86.6357,121.6
86.6657,279.1
86.6797,508.5
86.6971,142
86.6996,137.5
86.7053,124.1
86.7641,168.5
86.7706,226
86.8008,202.4
86.8651,18.1
86.8683,151.4
86.8806,202.6
86.8864,160.4
86.8907,18.2
86.9257,233.7
86.9287,299
86.9394,166.5
86.9526,138.5
86.9668,651.5
86.9914,373.3
87.0011,351.2
87.0135,18.6
87.0246,170.2
87.0311,420.3
87.0332,432.9
87.0652,17.1
87.0996,630.9
87.1019,387
87.138,525.4
87.1443,251.3
87.1592,380.1
87.185,445.4
87.1959,263.8
87.225,304.4
87.237,355.7
87.2484,20.5
87.257,19.4
87.2775,287.9
87.3058,382.4
87.3608,191.3
87.3657,200.9
87.3683,212.5
87.3695,252.5
87.3821,18.1
87.4344,200.5
87.4563,236.9
87.5073,134.5
87.5358,181.5
87.5545,507.7
87.5564,797.4
87.5763,731.1
87.6032,686.3
87.6092,253.5
87.6173,18.3
87.6224,16.8
87.6773,20.2
87.7155,190.5
87.8121,19.4
87.8449,145.7
87.9042,16.7
87.9165,463.4
87.9221,335.3
87.9284,15.9
87.9464,346.4
87.9581,18
87.9922,258.9
88.0127,253.6
88.0154,127.4
88.0324,226.1
88.039,2496.3
88.0614,153.9
88.0629,248.9
88.0861,525.4
88.0912,263.1
88.098,216.9
88.1112,15.3
88.1817,120.4
88.1933,265.7
88.2281,18.6
88.2515,435.5
88.3438,263.6
88.3631,271.1
88.3646,19.9
88.3796,190.3
88.3841,189.1
88.4133,234.4
88.4149,294
88.4157,353.3
88.4412,410
88.443,260.6
88.4677,20.1
88.5135,277.9
88.522,673.1
88.5259,486.5
88.5338,17.8
88.5516,249.7
88.5672,140.9
88.599,335.6
88.6671,23.3
88.6756,22.5
88.7041,277.1
88.7204,318.8
88.7287,204.7
88.738,858.5
88.7859,361.1
88.8088,135.9
88.8292,164.4
88.8495,20.4
88.8536,188.7
88.9171,329.9
88.9192,688
88.9252,17.9
88.9353,723.7
88.9522,243.9
88.957,240.1
88.9765,21.9
88.9981,113.4
89.0817,755.9
89.0997,27.6
89.1183,371.2
89.1224,379.7
89.1465,201.2
89.1547,188.9
89.1654,495.5
89.1662,97
89.1822,18
89.1826,17.8
89.183,20.2
89.1878,195.4
89.203,307.5
89.2455,141
89.2535,517.1
89.3134,22.9
89.3403,253.1
89.3876,259.1
89.4005,17.9
89.4232,271.1
89.4264,324.8
89.4351,266.4
89.4724,19.3
89.4877,109.6
89.4932,141.7
89.5581,484.9
89.5873,205.7
89.6504,328.6
89.6577,272.6
89.6832,129.7
89.6847,228
89.7572,315.7
89.7588,678.8
89.7679,390.5
89.8163,630.2
89.8182,488.8
89.8238,172.4
89.8504,755.3
89.9265,387
89.9361,349.4
89.9391,236.3
89.9506,19.8
89.9606,36.5
89.9626,525.9
89.9635,536.2
89.9803,19.7
89.9813,125.9
89.9936,17.9
90.0156,27.4
90.0367,395.2
90.0591,438.9
90.0899,745.9
90.1366,146.4
90.1433,369.4
90.1512,20.3
90.2125,547.2
90.2294,505.1
90.2322,19.6
90.2807,762.1
90.2905,373.4
90.2918,358.3
90.3032,256.6
90.3134,781.6
90.3307,18.2
90.3389,185.3
90.3515,688.2
90.3625,20
90.3678,297.4
90.3701,103.6
90.3932,334.5
90.394,133.7
90.4341,492.4
90.4359,17.3
90.4427,20.5
90.4447,197.5
90.4958,419.4
90.5324,315.5
90.5396,427
90.5474,138.5
90.5515,289.5
90.5738,161.3
90.5797,17.2
90.5962,381.3
90.6075,127.4
90.6126,646.7
90.6376,222.6
90.6604,384.4
90.6744,19
90.6969,118.7
90.6995,404.1
90.7071,158.4
90.7376,524.8
90.7903,769.5
90.8574,879.9
90.8879,165.9
90.9031,230.3
90.9054,279.1
90.907,642.2
90.9352,151.3
90.9406,376.2
90.9475,5626.3
90.9577,185.5
90.9755,18.2
90.9764,7981.6
90.9801,230.7
90.9984,656.7
91.0124,290.8
91.054,1781.5
91.0858,547.7
91.1235,178.8
91.1457,375
91.1657,162.4
91.1869,181.4
91.2301,231.9
91.2456,677.1
91.2515,191.8
91.2657,222.9
91.2762,136
91.3013,21.7
91.3019,290
91.3176,130
91.3199,179.5
91.3551,365.2
91.3596,160
91.3948,22.1
91.4181,21.6
91.4188,25.1
91.4212,340.8
91.4812,16.9
91.4875,263
91.5411,423
91.553,110.6
91.5556,317.8
91.6122,22.3
91.6396,214.9
91.7019,347
91.7267,195
91.7384,125.1
91.7578,131
91.7947,17.6
91.8039,22.5
91.833,306.8
91.8493,334.4
91.8527,217.8
91.8611,22.4
91.8639,302.3
91.8986,18.5
91.9656,482.6
91.9822,258.4
91.989,209.2
91.9915,401.9
91.9926,399.3
91.9985,183
92.0261,22.5
92.0372,127.2
92.0495,270.2
92.0574,19.2
92.0609,17.8
92.0991,579.3
92.1498,455.7
92.1794,368.4
92.1872,606.6
92.2145,688
92.2277,199.1
92.235,100.1
92.2539,651.2
92.2785,20.4
92.3164,280.6
92.3695,154.8
92.3902,589.2
92.407,177.7
92.4168,173.1
92.4374,17.8
92.4417,203.8
92.5138,510
92.5551,136.7
92.5638,696.3
92.6023,779.6
92.6166,173.1
92.6477,244.2
92.6516,19.8
92.6795,235.2
92.7141,260.6
92.7172,393.9
92.7576,189
92.8084,136.3
92.8269,577.5
92.8703,246.3
92.9002,51.4
92.9137,485.6
92.9652,370.9
93.0125,340.6
93.0321,218.3
93.0333,20.2
93.0384,683.6
93.0441,360.5
93.0492,654.7
93.0695,220.8
93.0871,655.3
93.0926,133.4
93.1011,134.3
93.1167,146.9
93.1273,178.4
93.1688,18.2
93.1725,121.3
93.2113,401.7
93.215,334.1
93.2363,565.8
93.259,194.1
93.2723,202.2
93.2907,259.3
93.2992,309.2
93.3121,486
93.3322,171.6
93.3348,494.5
93.3624,486.8
93.3688,191
93.4159,258.1
93.4381,605.1
93.4407,18.9
93.446,187.7
93.4556,164
93.4773,106.4
93.4776,312.9
93.478,265.8
93.4914,19.4
93.5281,736.1
93.5421,580.7
93.5456,344.9
93.5843,132.6
93.6772,115.8
93.6856,311.8
93.7064,435
93.7091,19.7
93.7204,161.2
93.7288,464.6
93.7361,155.7
93.7388,21.2
93.8206,226.3
93.9136,402.9
93.9178,362.5
93.9182,395.1
93.9187,430.3
93.9638,356.6
93.9684,301.8
94.0151,161.5
94.0385,17.9
94.0394,400.7
94.0411,47004.1
94.0696,245.4
94.0723,18
94.0996,22
94.1208,164.6
94.1905,210
94.2296,200.2
94.2442,284.6
94.2783,142.8
94.2805,303.2
94.3087,294.7
94.3249,125.8
94.3379,309.4
94.3701,182.7
94.3827,19.9
94.3839,361.4
94.4322,623.4
94.4628,382.9
94.4784,208.1
94.4992,371.7
94.5237,18.2
94.533,114
94.5848,356.1
94.6022,16.2
94.605,952
94.6641,163.2
94.6764,539.4
94.6827,634.2
94.7108,316.8
94.7378,136.7
94.7865,285.8
94.8037,351.3
94.8458,140.3
94.8691,127.5
94.9246,113.5
94.9473,240.9
94.9583,17.1
94.9884,443.4
95.0015,313.3
95.0286,126.3
95.0331,409.7
95.0354,29
95.0445,786.9
95.0455,24.9
95.0462,62.8
95.0489,363713.5
95.0509,98.4
95.0573,180.2
95.0625,52.6
95.0734,130.9
95.0748,497.6
95.0839,359.9
95.0853,1191.6
95.0872,17
95.1163,23.4
95.128,815
95.1577,17.4
95.1942,166.7
95.1985,130.7
95.2049,19
95.2081,160.2
95.2286,187.4
95.2462,120
95.2554,19.8
95.3362,364.1
95.3439,278.3
95.3559,370.1
95.3657,460
95.3738,127.2
95.3971,335.9
95.4002,323.7
95.4352,268.2
95.4485,365.3
95.4497,16.4
95.4607,313.2
95.4813,183.8
95.5031,108.7
95.5319,158.9
95.5848,321.9
95.6179,251.9
95.6277,634
95.6288,149.8
95.6319,228.9
95.6404,129.2
95.642,388.9
95.6457,129.7
95.6807,102.7
95.6826,724.8
95.7069,169.7
95.7111,19
95.7495,282.5
95.758,156.3
95.7758,231.1
95.7946,552.1
95.8011,214.2
95.8085,241.1
95.8352,17.2
95.8524,436.9
95.8897,138.3
95.9284,441.6
95.9372,876.2
95.9413,286.9
95.9577,19
96.011,174.5
96.0237,724
96.0523,18999.3
96.0539,170.4
96.0717,430.4
96.1183,382.9
96.1196,290.9
96.152,705.3
96.1948,272.1
96.2376,24.4
96.2557,674.9
96.2734,20.6
96.3235,116.4
96.3333,326.2
96.3478,370.5
96.3919,129.8
96.405,701.5
96.4081,278.7
96.4494,317.4
96.4757,236.4
96.4787,688
96.5359,228.4
96.5754,19.7
96.5869,293.5
96.6153,211.1
96.6214,178.7
96.6224,20.6
96.6362,315.3
96.647,167.4
96.6517,254.7
96.6761,118.1
96.7031,452.3
96.7154,471.2
96.7188,323.1
96.7463,178
96.7595,311.8
96.7723,394.5
96.7748,184
96.7801,214.8
96.8033,19
96.8361,198.4
96.8607,228.7
96.8616,19.1
96.8715,206.8
96.8969,192.6
96.9093,222.4
96.9216,155770.3
96.9349,22.8
96.9374,25.7
96.9392,20.7
96.9649,346.2
96.9659,16.2
96.9727,131.6
96.9976,367.6
97.0073,69.7
97.0104,47
97.0532,82.6
97.0556,89.1
97.0727,489.8
97.0781,268.8
97.085,19.5
97.117,131.5
97.149,299.3
97.2074,19.2
97.2098,278.9
97.2493,18.2
97.2581,540.6
97.2714,107
97.2895,19
97.3259,16.6
97.3315,404.8
97.3371,272.1
97.364,330.5
97.3795,486.7
97.3935,354
97.4086,139.7
97.4251,327.5
97.4585,660.5
97.4727,126.1
97.4857,540.2
97.5014,634.2
97.5159,303.3
97.5266,17.3
97.5285,17.4
97.5368,726.8
97.5397,411
97.5472,406.6
97.5682,735.7
97.5716,412
97.6139,405
97.6368,16.9
97.6399,653.9
97.643,18.6
97.6508,99.3
97.7487,381.6
97.7496,519.2
97.7518,18.6
97.7971,18.1
97.8137,369.2
97.8168,18.8
97.9264,187.7
97.951,115.8
97.9547,175
97.9557,639.9
97.9965,340.9
98.1224,422
98.1294,137.3
98.1917,296.7
98.2345,260.2
98.248,380.8
98.2669,203.4
98.3075,300.4
98.3196,346.3
98.321,495.8
98.3318,141.4
98.3527,275.6
98.393,152.2
98.3977,574.8
98.4464,228.2
98.4559,384.5
98.4572,127.6
98.4597,471.7
98.5077,140.7
98.514,180.1
98.5232,130.7
98.581,18
98.5909,196.8
98.6057,24.1
98.6219,187.4
98.6477,166
98.655,502.1
98.6621,712
98.6731,338.1
98.7371,377.3
98.7426,470.4
98.8064,138.3
98.8333,243.6
98.889,154.4
98.9187,44038
98.9197,3764.5
98.9286,335.3
98.9338,402.8
98.9391,18
98.9571,17.6
98.9752,18165.1
98.9822,159.2
98.984,139.6
98.992,660.5
99.0099,19.4
99.0183,299.4
99.0368,123.6
99.062,189.3
99.0719,539.8
99.1233,355.9
99.1356,160.7
99.1652,425.8
99.1768,444.4
99.2164,280.9
99.2182,174.4
99.3071,24.1
99.3181,628.8
99.323,17.8
99.3307,186.1
99.3906,20.6
99.4251,122.8
99.4439,336.5
99.4447,162.1
99.541,202.5
99.5438,165.5
99.5786,200.1
99.6203,456.4
99.628,363
99.6855,477.8
99.6894,172.8
99.6949,16.8
99.7409,161.8
99.815,293.6
99.8185,20.2
99.8548,22.3
99.8863,382.4
99.8989,432.6
99.9073,18.4
99.9194,292
99.9231,151.7
99.9502,372.8
99.9737,230.7
99.987,398
100.0061,139.4
100.0403,196.7
100.0535,197.1
100.0979,17.2
100.1165,701.2
100.1529,540.2
100.1846,249.8
100.1869,214.8
100.2075,265.5
100.2141,239.3
100.2361,318
100.2456,397.9
100.2526,552
100.2761,19.2
100.2836,264.5
100.2888,290.8
100.2935,352.3
100.3063,17
100.315,226.8
100.343,283.5
100.3464,674.9
100.3587,326.5
100.3647,548.3
100.3885,311
100.4316,200.6
100.446,99.8
100.4487,17.2
100.4861,17.8
100.5209,127.6
100.5426,281
100.5864,392.7
100.6236,716.7
100.628,17.3
100.6316,227
100.6456,614.4
100.6682,176
100.688,240.7
100.6963,262.2
100.7557,176.1
100.7633,333.7
100.7637,415.6
100.785,319.3
100.7923,423.6
100.8034,219.8
100.8317,186.6
100.8405,725.8
100.8577,297.9
100.8892,19.2
100.8915,18.8
100.9167,503.2
100.9237,492.6
100.9572,399.2
100.9854,17.9
101.012,164.3
101.0357,369.8
101.0469,164.7
101.0615,17.4
101.0707,1504.4
101.0879,278.4
101.1253,240.5
101.1274,93.2
101.1458,119.8
101.1598,653.1
101.1694,642.3
101.2039,453.6
101.2091,168.5
101.2708,143
101.3075,140.5
101.33,17.3
101.4169,689.5
101.469,275.2
101.5032,292.8
101.524,268.7
101.5382,139.5
101.5631,105.1
101.6145,242.4
101.6182,17.8
101.6244,362.1
101.6894,340.3
101.6942,20.5
101.6985,18.5
101.7272,647.4
101.7355,180.7
101.7407,467.4
101.751,659.8
101.7535,300
101.7665,176.1
101.7681,345.8
101.7778,193.8
101.7865,421.1
101.7875,377.7
101.797,222
101.8049,938.8
101.8105,123.1
101.8154,353
101.8321,607.5
101.8616,181.4
101.8706,20.4
101.8884,176.1
101.9026,245.3
101.9211,114.9
101.9614,238.3
101.9635,276.2
101.9879,472.1
101.9933,225.2
102.0238,219.3
102.0252,448.8
102.0297,210.1
102.0347,118.4
102.0383,19.2
102.0474,20.9
102.0495,719.1
102.0548,1498
102.0803,133.5
102.1284,161.4
102.1353,497.4
102.1475,97.5
102.2923,304.7
102.3048,132.3
102.3218,162.4
102.3291,17.2
102.3388,654.7
102.4279,196.8
102.439,144
102.4542,125.2
102.4572,655.9
102.4849,419
102.5114,19.8
102.5221,294.6
102.5813,16.4
102.6142,430.6
102.6981,327.3
102.7066,621.1
102.716,382
102.7423,430
102.7466,176.6
102.7685,353.9
102.7983,381.2
102.8123,443.9
102.8204,143.7
102.8297,157.6
102.8329,619.4
102.8498,138
102.8705,185.7
102.8837,316.2
102.8909,121.5
102.9078,171.9
102.9225,297.1
102.9378,134
102.9454,526.9
102.9475,44.3
102.9548,18.5
102.9679,57.3
102.9701,349.9
102.9763,155.7
103.0308,148.4
103.0537,126.3
103.0794,185.4
103.2459,177.3
103.2599,358.5
103.328,229.5
103.3592,19.1
103.3658,192.9
103.3713,352.5
103.4232,97.7
103.4508,214.5
103.4778,153.9
103.4943,17.7
103.5847,20.3
103.6133,502.1
103.6186,480.7
103.6211,322.7
103.6252,564.7
103.6523,777.8
103.6817,313.9
103.6831,362.9
103.6888,417.2
103.7478,543.4
103.7575,103.1
103.8547,338.7
103.8666,334.1
103.8684,191.3
103.8722,432.1
103.8742,16.8
103.891,205.3
103.894,336.4
103.9197,120.4
103.9328,151.3
103.9459,204.4
103.9662,20.2
103.9666,23
103.9671,15.3
103.9792,333
103.9849,143.3
103.988,444.2
103.9914,19.8
104.0031,17.4
104.0259,127.9
104.0298,132.4
104.042,258.1
104.0672,243.7
104.0777,284.8
104.0859,137.5
104.0965,206
104.1068,292450.1
104.1475,311
104.2338,18.1
104.2409,502.6
104.2559,20.1
104.2771,22
104.2888,20.1
104.293,250.1
104.3082,277.6
104.4047,199.4
104.4078,245.7
104.4289,15.7
104.4441,17.5
104.4801,221.9
104.5928,121.3
104.594,271.2
104.6218,18.5
104.6398,273.9
104.6424,243.9
104.6443,134.7
104.6549,161.1
104.6718,348.2
104.7275,552.1
104.7378,218.4
104.7809,351.7
104.7875,148.7
104.7971,705.5
104.806,89.9
104.883,425.7
104.9094,134.6
104.9104,23.4
104.9293,635.7
104.9479,146.5
104.9632,5610.9
104.9788,18.5
104.9922,2849.2
104.9975,130.9
105.0211,22.1
105.0326,569.7
105.0365,612.1
105.0446,32535.9
105.0538,350.7
105.0656,17.4
105.1102,10663.1
105.1462,337.1
105.1621,161.2
105.1839,124.4
105.2113,386.9
105.215,656
105.2362,789.6
105.2596,348.8
105.2864,460.9
105.3376,291.3
105.3457,19
105.3809,555.6
105.4742,181.8
105.4763,270.7
105.4777,507.3
105.4955,368
105.5328,181.8
105.55,196.6
105.5637,359.7
105.5725,207.3
105.6007,332.1
105.6114,100.7
105.6205,371.1
105.6765,392
105.6913,496
105.6949,190.5
105.7159,178.4
105.7303,146.6
105.7324,320.3
105.8796,230.5
105.9019,20.4
105.9099,22.6
105.9435,123.3
105.946,24.6
105.9666,29.5
105.978,139.4
105.989,321
105.9921,115.8
106.0257,111
106.0386,18.4
106.0479,392.2
106.0635,24.7
106.065,48.8
106.0776,733.9
106.1677,259.2
106.1793,380.5
106.2038,366.2
106.2453,949.3
106.2472,418.4
106.2515,423.3
106.2664,497.7
106.3107,21.1
106.3144,253.9
106.3351,275.1
106.3775,157.3
106.3953,538.3
106.4031,406.8
106.4047,117.2
106.4203,260.9
106.4682,428.2
106.5481,149.9
106.5563,181.6
106.5638,341
106.5714,137
106.6083,15.9
106.6169,265.9
106.6184,208.2
106.6256,326
106.6909,445.4
106.6985,467.8
106.7019,19.5
106.7062,20.5
106.7377,467.4
106.7419,21.5
106.7571,593.4
106.7608,249
106.7688,348.2
106.7912,693.2
106.8181,184.7
106.8252,196.7
106.8554,151
106.9099,706.7
106.9329,343.9
106.9433,22.4
106.9505,2682.1
106.9575,127.8
106.9635,82.4
106.9765,21.2
106.9918,28.6
107.0086,605
107.0282,28.3
107.045,614.2
107.049,384.1
107.0645,805
107.097,22.4
107.1226,206.8
107.1382,198.5
107.1773,195.4
107.2478,267.7
107.2611,410.8
107.2704,175.4
107.2937,648
107.3109,22.7
107.3647,139.1
107.3754,247.9
107.416,495.9
107.4509,17
107.4834,191.7
107.4888,127.4
107.5618,234.8
107.6691,124.9
107.7504,576.6
107.7533,407.1
107.766,614.9
107.7734,126.7
107.7779,96.6
107.811,245.3
107.8225,353.8
107.8419,17.9
107.8489,425.5
107.8753,16.2
107.8981,239.1
107.9108,562.2
107.9433,301.8
107.9829,145.8
108.0045,180.2
108.0104,416
108.0228,516.5
108.052,19.2
108.0567,18.9
108.0656,412.2
108.0747,21.6
108.0776,131.9
108.0814,19.5
108.0922,775.3
108.1005,326.7
108.1124,352.2
108.1812,18.5
108.182,21.8
108.2049,663.1
108.2822,721.7
108.2883,194.2
108.3371,189.9
108.3493,313.9
108.3612,149.5
108.3699,277.7
108.3804,213
108.3966,166.2
108.4216,326.5
108.4251,132.5
108.4531,20.2
108.4753,644.7
108.4846,275.7
108.5045,18.9
108.5057,18.7
108.5149,17.7
108.5257,258.7
108.5324,446.2
108.5615,284.4
108.5659,213.6
108.591,609.2
108.6007,531
108.6476,280.5
108.6791,164.5
108.6909,392.2
108.7296,251.6
108.8817,353.6
108.8858,162.7
108.8871,289
108.9165,23.1
108.9324,288.2
108.9468,168.6
108.9581,129.7
108.9827,17.9
108.9947,367.7
109.0352,150.6
109.0646,52462.9
109.0908,412.7
109.1009,214
109.1188,188.8
109.1232,329.5
109.1608,561.3
109.1661,291.3
109.2098,309.9
109.2807,369.2
109.2993,149.2
109.3051,230.5
109.3615,506.7
109.5407,147.3
109.5498,444.4
109.5678,691
109.6133,288
109.6469,265.3
109.6484,419.9
109.6716,126
109.7348,218.5
109.7765,771.1
109.7995,19.5
109.8253,155.2
109.8961,310.8
109.9175,361.2
109.9308,243.1
109.9432,218.9
109.9612,345.5
110.0318,219.7
110.0381,445.6
110.0606,390.6
110.068,1619.8
110.0712,1148.4
110.0739,232.1
110.0771,227.3
110.1006,17.5
110.1199,174.5
110.1483,473.8
110.1782,195.8
110.2204,178.5
110.2339,208.9
110.2518,534.3
110.2926,399.7
110.2942,298.2
110.3474,338.8
110.3819,225.6
110.4171,260.5
110.4238,142
110.4416,18.2
110.4487,258.3
110.4513,97.5
110.4528,298.2
110.4978,279.4
110.5778,17.9
110.596,576.3
110.6046,307.6
110.618,205.7
110.6344,127
110.6976,540.8
110.7094,97.9
110.7197,484.1
110.7282,25.7
110.7477,20.3
110.7751,527.4
110.8631,264.5
110.9506,206.8
111.0178,17.7
111.0231,203.2
111.0439,230.7
111.0871,325.9
111.0906,186.8
111.104,24.5
111.1434,160.9
111.1449,153.9
111.1494,157.2
111.1756,562.4
111.2443,377.3
111.2915,155
111.2919,156.2
111.2925,127.8
111.3312,208.9
111.3721,148.7
111.4501,279.1
111.4874,281.4
111.5681,18.7
111.6344,441.7
111.6446,396.2
111.6564,270.6
111.6758,273.4
111.7281,409.2
111.7841,155.9
111.8073,207.3
111.8378,127.4
111.8685,310.2
111.928,17.4
112.033,159.5
112.0592,339.6
112.0775,182
112.0993,50.5
112.1832,177.3
112.185,316.9
112.2236,140.4
112.2364,415.4
112.3081,23.3
112.3252,658.2
112.329,376.7
112.3699,425.9
112.4484,122.9
112.5174,309.1
112.5201,20.4
112.5381,304
112.5479,18.9
112.5613,17.9
112.5672,197.2
112.5752,117.2
112.5799,163.6
112.5908,391.1
112.6924,686.8
112.7252,615.6
112.7803,293.4
112.7937,401.8
112.7949,297.6
112.8088,18.8
112.8188,123.9
112.8371,151.1
112.848,134.3
112.8956,410647
112.913,217.7
112.9783,456.6
112.9894,17.4
113.0045,19
113.0205,327.2
113.0354,240.5
113.0382,556.2
113.0724,391.5
113.1074,207.4
113.162,268.1
113.2319,332.9
113.2635,591.3
113.3155,537
113.3175,284.1
113.3733,203.9
113.38,87.2
113.4509,302.2
113.4787,538.6
113.499,168.6
113.5064,284.1
113.5821,123.5
113.6117,306.3
113.6154,256.2
113.6237,21.6
113.6382,135.2
113.6903,269
113.7493,253.2
113.7559,660.3
113.7699,22.4
113.7786,284.9
113.8154,298.1
113.841,99.2
113.8539,136.6
113.9006,20.2
113.9077,381.1
113.9194,19.5
113.9484,119.5
113.9636,64.5
113.9725,353.6
114.0093,309.4
114.0485,266.9
114.0548,20222.5
114.066,975.6
114.0825,304.4
114.1083,496.6
114.1397,357.4
114.2139,172
114.2341,193
114.2362,489.4
114.2468,277.2
114.2566,708.1
114.3065,584
114.3246,93.2
114.3294,125.4
114.3306,235
114.3561,549.8
114.3621,426.1
114.3717,19.6
114.3772,437
114.3895,241.8
114.4015,703.1
114.4124,17.9
114.4209,443.5
114.4585,511.1
114.5093,17.9
114.5573,161.3
114.5706,323.2
114.6044,419.2
114.6072,701.8
114.6315,185
114.6778,173.6
114.683,133.4
114.6876,358.5
114.7276,366.5
114.7618,158.9
114.7695,179.2
114.8025,177.6
114.8307,508.7
114.8597,546.8
114.8685,393.1
114.8927,128669
114.9334,200.2
114.9481,456
114.9513,705.3
114.9538,810.3
114.9599,678.4
114.9653,576.5
114.9729,357.4
115.016,493
115.0314,138.5
115.0364,47.4
115.0689,249.6
115.0864,19.5
115.1675,180.7
115.1874,597.4
115.2296,298.1
115.2348,293
115.3363,301.5
115.3819,179.2
115.4788,337.6
115.5147,404.4
115.5317,358.8
115.5398,127.9
115.5412,201.4
115.5893,429.7
115.6117,124.5
115.6303,203.3
115.655,353.8
115.662,99
115.6899,669.9
115.7057,282.8
115.7115,260.3
115.7485,20.1
115.7877,193.4
115.8034,243.9
115.8777,174.1
115.8991,220.6
115.9096,321.8
115.9493,220.2
115.9642,360
115.9792,796.8
116.0704,4873.2
116.1325,17.6
116.134,220.6
116.1553,199.2
116.1883,359.6
116.2128,16.9
116.2628,306.3
116.295,159.1
116.3768,21.3
116.4686,18.8
116.4766,16.4
116.5821,291.9
116.5867,637.2
116.6099,96.7
116.6131,19.3
116.6843,190.1
116.7478,183.6
116.8409,341.9
116.8634,17.5
116.8722,353.6
116.8736,333.4
116.8908,16582.2
116.9103,204.1
116.9231,214.2
116.9632,261.3
116.9819,419.9
116.9844,67.8
116.9859,852.7
117.0206,20.7
117.0551,19.3
117.0647,364.8
117.0697,26.4
117.099,181.2
117.117,319.8
117.1238,667.8
117.1362,126.1
117.1446,213.3
117.1487,211.5
117.2171,214.5
117.2202,130.5
117.2811,23.7
117.3375,157.7
117.3404,182.3
117.3717,20.2
117.4886,546.6
117.5093,20.5
117.5761,236.1
117.6496,894.2
117.6566,345.7
117.7049,153.6
117.721,18.3
117.7502,186.2
117.7635,316.1
117.8213,174.7
117.8751,728.5
117.8878,313.2
117.8955,215.6
117.9021,674.7
117.9101,17.6
117.9144,153.5
117.9435,798.1
117.9558,620
117.9579,267.2
117.9597,159.5
117.9635,22.4
117.9923,275.1
117.9945,24.2
118.01,18.7
118.0125,26.5
118.0251,284.3
118.0379,142.2
118.04,1243.7
118.0821,162.4
118.0836,246.6
118.1136,572.8
118.124,222.3
118.1686,722.3
118.1943,606.1
118.2031,660.3
118.215,282.4
118.2607,371.8
118.2661,220.4
118.2687,126.6
118.3343,373.9
118.3374,22
118.3433,190.9
118.3617,297.3
118.3668,160.6
118.4609,127.9
118.4873,177.4
118.5326,183.3
118.5405,501.8
118.542,370.5
118.5443,228.4
118.5496,738.2
118.558,255.4
118.6541,262.8
118.671,503
118.8025,229.1
118.8608,295.4
118.8667,18.6
118.883,181.5
118.9365,334.6
118.9425,1017.9
118.9789,872
119.0074,326.7
119.0183,289.6
119.0627,261.4
119.1157,396.8
119.12,353
119.1244,773.5
119.1596,317.6
119.1625,222
119.206,262.9
119.2508,149.2
119.2526,213.9
119.2952,335.6
119.3271,307.6
119.3462,362
119.3603,196.9
119.3785,770
119.3934,301.3
119.4032,132.5
119.4212,303.9
119.4465,275.6
119.4655,304.8
119.5001,201.4
119.5596,24.7
119.6201,149.4
119.6536,337.2
119.7042,20.7
119.734,171.5
119.7757,460.5
119.8292,137.2
119.9242,324.7
119.9431,18.3
119.9684,357.7
119.9738,141.9
119.9758,225.3
120.0031,4613.1
120.0714,171.9
120.0807,8691.7
120.0921,248.9
120.1382,117.8
120.1547,255.3
120.1589,559.9
120.1654,330.9
120.2151,717.3
120.2457,684.7
120.2547,444.2
120.2597,248.8
120.2848,203.1
120.3009,641.1
120.3558,767.4
120.3795,91.4
120.391,369.4
120.393,383.1
120.3998,236.4
120.4035,196.8
120.4237,314.2
120.466,356.2
120.4891,168.1
120.4899,144.8
120.5024,229.4
120.5181,464.1
120.535,321
120.5556,16.7
120.6036,474.8
120.6062,190.7
120.6204,231.6
120.694,388.8
120.7038,374.1
120.7174,17.4
120.7321,308.8
120.7652,315.4
120.7695,425.7
120.8406,425.5
120.8975,186.4
120.9067,159.8
120.9662,317.9
120.9699,685.9
120.9714,414.8
120.9808,240
120.9843,23.4
120.9977,21.2
121.0075,148
121.0198,16.5
121.0283,488.6
121.0334,684.9
121.0395,82.7
121.0422,17.5
121.0575,152.6
121.087,320.4
121.0956,24.8
121.101,26.4
121.1279,295.9
121.1439,173.6
121.1498,19
121.1944,823.1
121.2025,205.3
121.2267,94.3
121.2425,311.3
121.2613,381
121.295,370.9
121.3064,835.8
121.3825,512.4
121.3955,469.9
121.4394,152.1
121.4409,132.3
121.4632,262.3
121.4949,537.3
121.5037,185.9
121.5095,161.5
121.5907,22.5
121.5962,145.9
121.6638,202.7
121.6821,347.5
121.7501,21.3
121.7615,20.6
121.8117,20.8
121.8144,252.5
121.8404,117.1
121.8639,448.1
121.8692,142.6
121.8981,218.5
121.9247,399.2
121.9635,220.4
121.9835,487.5
121.9865,20
122.0036,299.4
122.0451,154.9
122.0975,470.1
122.1593,378.5
122.2105,193.3
122.2411,627.7
122.329,18.3
122.3737,456.5
122.4175,577.5
122.4538,148.1
122.4865,740
122.489,345
122.5442,352.4
122.5526,301.8
122.6182,231.2
122.7313,138.1
122.7701,20.3
122.7737,21.6
122.7943,536.9
122.7986,170
122.8128,372.8
122.8526,16.9
122.883,317.8
122.9245,15712.8
122.9294,23.4
122.9412,362.1
122.9427,283.1
122.97,382.2
122.9738,229.2
122.9954,197
122.9986,831.1
123.0258,19.5
123.031,523.4
123.0426,17.9
123.0476,386.4
123.0609,170.9
123.0803,29.4
123.0864,210.3
123.1354,20.2
123.1375,647.9
123.195,196
123.2126,16.1
123.2661,19.3
123.2978,345.1
123.326,533.9
123.3337,233.5
123.3786,140.8
123.3816,370.9
123.393,206.6
123.4096,395
123.4632,360.7
123.5073,239.7
123.6125,160.2
123.6184,303.7
123.6484,191.7
123.6603,402.9
123.6641,109.4
123.6867,154
123.7436,529.7
123.759,17.4
123.7813,197.9
123.811,19.7
123.8238,353.9
123.8893,258.7
123.8907,142.5
123.9153,616.5
123.9229,393.4
123.9294,464.1
123.9321,378.7
123.994,18.2
124.0114,709.7
124.0281,170.2
124.0311,671.7
124.0353,111.3
124.0498,20.4
124.0551,295.2
124.1261,492.5
124.1859,496
124.2298,20.1
124.331,182.7
124.3353,194
124.3907,289.7
124.4047,470.2
124.4565,171.2
124.5033,22.1
124.5366,134.7
124.5689,136.6
124.6561,282.8
124.6877,212.3
124.6895,89.1
124.7271,17.6
124.7481,485.9
124.7674,226.7
124.7897,782.6
124.8265,185.4
124.8439,224.9
124.8604,266.6
124.8624,329.2
124.8682,295.2
124.8716,387
124.8858,492
124.8951,486.9
124.9226,1683
124.9868,436.8
124.9997,3805.2
125.0054,1352.5
125.0152,21093.4
125.0224,18.7
125.0388,134.9
125.0419,423.9
125.0597,80.6
125.0844,241
125.0963,653.6
125.1331,17.7
125.1387,406.1
125.1825,125.6
125.1912,402.1
125.1962,18
125.2098,539.1
125.2476,191
125.2583,105.4
125.2645,192.7
125.2678,273.2
125.2804,289.9
125.4482,138.4
125.4642,145.3
125.4709,267.8
125.5247,365.1
125.5417,130.7
125.5772,447.5
125.5889,212.9
125.6036,240.4
125.6068,20.3
125.6937,454.7
125.7545,288.3
125.7961,402.8
125.8204,211
125.8451,190.3
125.9548,17.9
126,257.5
126.0187,371.6
126.0343,210.7
126.0744,191.6
126.0794,479.4
126.1485,600.6
126.1591,550.9
126.2056,376.2
126.2506,220.1
126.2575,118.3
126.2681,571.3
126.3058,346.6
126.3118,335.4
126.3138,483.1
126.3675,158.6
126.3778,276.4
126.4092,144.1
126.4192,16.8
126.4335,611.8
126.4772,17.2
126.5047,140.8
126.5105,202.2
126.5277,619.6
126.5357,19
126.5364,17.8
126.5592,309.9
126.6739,221.9
126.7265,330.8
126.936,220
126.9594,349
126.9615,123.7
126.9778,198
126.9934,19.7
127.0015,18.4
127.0122,2069.7
127.0321,409.6
127.0477,227.2
127.2018,520.1
127.324,226.1
127.3292,111.7
127.3731,101
127.3767,221.8
127.4492,182.3
127.4696,183.7
127.5002,19.1
127.6228,486.1
127.6577,227.9
127.6849,625.9
127.705,300.1
127.7873,572.3
127.8295,121.8
127.835,325
127.8524,229.5
127.8632,21.9
127.9137,18.9
127.963,388.2
127.9771,232.8
127.9869,369.3
127.9999,217.2
128.0157,25.1
128.0423,270.8
128.0703,150.2
128.1219,138.8
128.1241,560.8
128.1315,110.6
128.1383,332
128.1612,15.7
128.2608,742.4
128.2937,284.2
128.3263,19.2
128.3536,28.5
128.4257,232.2
128.4263,223.5
128.4268,165.7
128.4739,18.2
128.4904,228.4
128.5253,556.4
128.5299,226.1
128.583,494.8
128.6128,337.1
128.6197,118
128.6272,271.5
128.6293,160
128.6601,297.5
128.6698,482.3
128.7082,137
128.7148,678.3
128.7603,16.8
128.7722,461.6
128.8495,19.8
128.8588,190.1
128.9516,114.2
128.9637,341.6
128.9903,18.3
129.0353,151.5
129.0765,93.2
129.082,336.9
129.0915,145.1
129.102,837.9
129.1314,232.5
129.2455,139.7
129.2494,696.4
129.2662,501.5
129.3235,244.6
129.3435,27.1
129.3533,269.3
129.4182,285.4
129.4252,229.2
129.4383,23
129.4546,113.7
129.5213,421.6
129.5243,509.1
129.5332,132.8
129.6268,365
129.6651,443.8
129.6677,328.2
129.7004,195.4
129.7252,422.6
129.7584,19.3
129.7795,189.3
129.7836,173.5
129.8206,17.8
129.8225,176
129.885,133.1
129.8887,21.3
129.9106,22.8
129.9145,276.2
129.9563,319.8
129.9585,346.1
129.9923,298.6
129.9947,408.5
129.997,144.5
130.0245,391.4
130.0498,11320.4
130.086,1071
130.1418,255.1
130.1599,440.6
130.1775,164.3
130.2283,19.1
130.4109,538.8
130.4401,224.3
130.4836,278
130.4886,233.2
130.5295,423.3
130.5505,133.3
130.5722,307.4
130.5951,141.7
130.5965,19.5
130.6336,21.3
130.6407,20.9
130.6459,322.9
130.6465,288.3
130.6472,176.5
130.6658,141.6
130.7061,21.3
130.7385,371.6
130.7704,201.6
130.7997,19.3
130.8196,181.6
130.829,478
130.8545,152.1
130.8668,227.9
130.89,193.1
130.8943,225
130.9047,20.5
130.9381,114.1
130.979,33.6
130.9944,267.4
131,113.7
131.0269,20.3
131.0302,17.7
131.0398,213.6
131.041,540.1
131.0524,153.1
131.0702,219.9
131.0825,673.8
131.1498,478.1
131.1862,435.8
131.251,327.4
131.2787,17.8
131.281,194.4
131.3546,726.8
131.3595,187.5
131.3885,277.6
131.3987,473.6
131.4363,222.2
131.4612,303.8
131.4942,173.6
131.5534,320.1
131.575,158.5
131.644,193.3
131.6645,21.5
131.7685,24.8
131.8561,135.1
131.8568,175
131.8573,184.8
131.9407,177.4
131.9964,183.8
132.0031,34015.4
132.0654,32566.8
132.0766,2562.5
132.1238,327.7
132.1572,127.9
132.1833,157.9
132.187,154.9
132.2027,28.3
132.2085,135.6
132.232,102.1
132.237,19.7
132.3757,18.9
132.3787,197.2
132.4038,352
132.4773,153.9
132.4889,132.4
132.5076,19.7
132.5098,503.4
132.5239,332.5
132.5306,339.4
132.6101,272.9
132.6126,135.6
132.6528,191.3
132.6857,25.1
132.701,475.7
132.7032,170.4
132.7075,515.7
132.7348,272.9
132.7949,169.4
132.8002,305.2
132.8312,553.7
132.8318,615.8
132.8324,372.4
132.8638,455.5
132.9076,159.1
132.9181,192
132.9203,325.4
132.9524,210.6
132.9582,2097.2
132.9695,44.7
132.9871,4787.6
132.995,653.2
133.0243,318.4
133.0689,19.3
133.097,14931.5
133.1012,28.6
133.1625,18.8
133.2387,268
133.2516,310.7
133.2717,414.5
133.2813,126.6
133.291,232.3
133.3557,137.2
133.3581,378.9
133.5066,201.9
133.5155,247.1
133.5832,510.5
133.8011,346.5
133.819,184.7
133.8342,274.6
133.838,563.5
133.8507,440.2
133.8888,615.1
133.8985,127.1
133.9274,214.4
133.9298,159.3
133.9392,263.9
133.9433,186.6
133.9529,22.6
133.966,173.6
133.9691,490
133.9783,168.2
133.9814,45.3
134.0048,330.5
134.0164,21.7
134.0188,28665
134.0212,156.3
134.0508,312.2
134.0906,270.3
134.1255,407.1
134.1428,529
134.1529,405.2
134.1883,153.2
134.216,257.8
134.2362,418.7
134.2406,16.2
134.2511,163.8
134.2726,143.3
134.3852,217.3
134.3981,250.8
134.4711,143.9
134.6075,272.5
134.7616,18.4
134.8436,277.9
134.8498,106.6
134.8514,258.9
134.9236,214
134.9426,345.5
134.9739,112.4
134.9891,290.2
134.9965,32
135.0028,162968.8
135.013,19
135.021,218.6
135.0231,36
135.0307,284.7
135.0984,131.3
135.1509,284.8
135.2036,210.9
135.2057,419.8
135.2257,23.4
135.2759,599.1
135.414,18.3
135.4387,282.5
135.4796,195.4
135.5543,18.7
135.76,291.6
135.8166,20.1
135.8247,21.6
135.8639,181.7
135.8844,544.1
135.9275,350.8
135.9771,2469.2
136.0003,556
136.0062,3325.2
136.0149,187.6
136.0156,175.4
136.0481,2653.1
136.0615,355.8
136.0756,8855.1
136.1391,281.4
136.1893,488.1
136.2061,271.4
136.2559,187.2
136.286,335
136.3323,503.7
136.3827,159.6
136.4627,287.9
136.4703,507.7
136.5713,180.8
136.6378,244.4
136.6421,21.9
136.6498,696.3
136.6517,323.6
136.68,16.9
136.6894,17.1
136.7547,145.8
136.7559,167.2
136.872,170.7
136.8906,160.2
136.9246,353.1
136.9311,606.4
136.9382,212.1
136.9531,192.4
136.9584,837.6
136.9895,78.8
137.0044,159
137.0363,347.5
137.0504,190.1
137.0533,140
137.059,531
137.1326,22.6
137.2345,176
137.2567,155
137.3321,515
137.3414,201.2
137.386,456.1
137.412,327.8
137.4543,642.9
137.4677,122.7
137.4763,701.6
137.4827,214.5
137.5818,420.2
137.633,146.1
137.6571,145.7
137.7423,144.8
137.7721,19.4
137.7944,643.6
137.8554,331.1
137.884,356.9
137.898,382.6
137.9571,228.2
137.9916,516.9
138.0236,147.9
138.0525,5475.1
138.0634,21.1
138.0661,87.1
138.075,172.8
138.1139,404.5
138.1431,415.3
138.1806,198.5
138.2174,23
138.2206,255.6
138.2231,668
138.2378,151
138.3336,321.9
138.3472,209
138.3834,189.2
138.398,192.7
138.4585,220.2
138.4601,645
138.5052,280.9
138.5172,175.3
138.5564,18.4
138.6221,291.4
138.6383,230.3
138.6538,19.2
138.6604,118.2
138.7171,321.2
138.7841,318.3
138.8171,363.4
138.8254,350.6
138.8327,496.6
138.9064,2477.2
138.961,646
138.984,28.8
138.9881,754.8
139.0491,185.1
139.0643,631.9
139.0837,143.5
139.1067,239.1
139.1302,625.2
139.1475,121.2
139.1505,297.4
139.1534,107.2
139.1839,146.5
139.2029,484.3
139.247,103.5
139.2778,147.6
139.3013,478.4
139.307,205.4
139.3552,355.6
139.3676,332.9
139.3925,21.2
139.4466,272.8
139.5529,760.7
139.6006,448.3
139.6725,322.9
139.7146,378.2
139.7417,166.7
139.758,307.6
139.7994,336.2
139.8182,432.8
139.8717,17.4
139.8984,306.4
139.9113,128
139.9434,553.1
139.9649,165.4
139.9989,176.9
140.0021,150.7
140.0129,215.3
140.0164,5044.9
140.0682,1822.8
140.1002,183.4
140.1094,362.2
140.1188,655.4
140.1801,313.8
140.2631,194.5
140.2659,22.9
140.2717,23.3
140.3412,498.2
140.3971,400.5
140.4072,648
140.4106,238.5
140.4254,469.3
140.4287,24.2
140.4392,658.4
140.4727,17.9
140.4958,207.6
140.5336,387.8
140.5358,259.3
140.5538,174.9
140.5616,372.2
140.6687,434.8
140.6732,568.1
140.7189,110.3
140.7475,363
140.8529,167
140.9035,1204.3
140.9397,20.6
140.9707,18.2
140.9815,168.2
141.0004,14820.8
141.0197,226.5
141.0321,224.1
141.0764,372
141.1415,18.4
141.1578,272.8
141.2006,22.9
141.2234,128.8
141.2295,348.3
141.2338,387.5
141.2465,350.1
141.2675,109.7
141.3316,287.2
141.3492,504.3
141.3542,157.6
141.3684,20.5
141.3886,252.1
141.3967,253.8
141.4023,195.1
141.4341,340.5
141.4381,19.9
141.4634,372.5
141.5039,20.6
141.5302,360.7
141.6234,434.4
141.6287,201.8
141.633,725.1
141.6553,112.6
141.6867,591.8
141.702,299.8
141.7129,497.1
141.7429,19
141.834,117.6
141.8594,251.7
141.9202,363.3
141.9257,199.7
141.9728,16.6
141.9917,276.2
141.9949,376.9
142.0037,380.4
142.0122,95.8
142.0155,20.5
142.0233,489.6
142.0473,963.8
142.0549,18.3
142.0627,153.5
142.1458,118.8
142.1663,139.7
142.1804,125
142.1957,522.9
142.1996,379.7
142.205,270.9
142.2357,129.8
142.2569,257
142.3425,436
142.4457,86.8
142.4484,184.7
142.5218,195.6
142.5372,501.7
142.6048,460.8
142.7986,230
142.8057,128.9
142.8266,170.2
142.8524,18.7
142.9064,259
142.9216,175.2
142.9482,312.2
142.9796,184.4
142.9879,273.3
142.9962,314.3
143.0189,899
143.0813,94.4
143.1242,443.4
143.1401,518.3
143.1644,234.7
143.1761,518.5
143.1841,330.1
143.2149,210
143.3294,293.3
143.3385,142.7
143.345,460.7
143.3914,183.8
143.4059,578.8
143.4102,285.8
143.4448,17.4
143.515,16.9
143.6038,146.9
143.6491,131.1
143.6699,183.8
143.7301,467.3
143.815,266.1
143.8235,749.9
143.8714,146
143.883,20.5
143.9882,461.8
144.0106,1214.6
144.0611,472.8
144.1426,260.5
144.1671,330.8
144.2973,422.4
144.2989,561.8
144.328,487.4
144.3532,326.1
144.4218,242.3
144.4841,244
144.4976,147.1
144.55,469.5
144.5666,203.9
144.6216,621.2
144.6658,167.1
144.6892,127.5
144.7483,145.2
144.7914,17.9
144.9198,20.5
144.9287,383.8
144.9398,558.8
144.9436,617.6
144.9581,27
144.9676,22.7
144.9807,3304.4
144.9944,38.1
144.9975,338.3
145.0157,44.8
145.0465,133.2
145.0558,764.7
145.1017,138.3
145.1545,609.4
145.2039,511.1
145.2414,179.6
145.2505,509.3
145.2865,508.6
145.3064,536.2
145.3182,256.7
145.3903,210.5
145.4031,136.5
145.4248,252.3
145.4319,25.9
145.4389,356.4
145.4691,140.4
145.5095,829
145.5112,284.6
145.5581,139.5
145.5683,115
145.6084,182.6
145.609,166.8
145.6096,144.3
145.6595,127.6
145.6971,183
145.7217,297.5
145.7242,23.9
145.7522,161
145.7931,112.5
145.8098,333.4
145.8155,251.6
145.8748,26.3
145.8855,18.8
145.8977,126.2
145.9114,342.6
145.9965,300.2
145.9998,203.2
146.002,212.3
146.0056,1120.8
146.0098,623.2
146.0123,801.6
146.0188,21080.9
146.0218,17.1
146.0262,207.3
146.1312,376.2
146.1618,700
146.1776,185
146.1898,23
146.2042,127.6
146.2673,161
146.2877,139.8
146.3368,159
146.3439,615.8
146.3555,782.8
146.3571,223.4
146.4027,134.2
146.6256,355.1
146.6602,370
146.662,571.2
146.7337,635.7
146.7519,676.6
146.8185,254.6
146.8441,17.5
146.8605,425.3
146.8817,490.3
146.9245,508.6
146.9457,347.6
146.9496,19.9
146.9703,434.3
146.9738,526.9
146.9817,90786.5
146.9893,262
147.048,163
147.0764,65032.4
147.1103,542
147.1127,27706.6
147.117,425.6
147.1193,184.1
147.1399,158.3
147.1578,490.2
147.1662,119.7
147.251,499.6
147.3204,288.3
147.3291,151.6
147.3508,19
147.3635,22.7
147.3898,221.9
147.3934,200.6
147.3977,18.1
147.4206,19.5
147.4466,387.8
147.4623,206.4
147.4973,198.1
147.5921,149.5
147.6426,137.4
147.6841,503.1
147.6867,311.5
147.701,213.8
147.7375,259.1
147.7673,352
147.786,304.4
147.8351,314.1
147.853,18.3
147.8678,158.6
147.8785,23.7
147.8854,816.4
147.8991,248.9
147.9694,19.7
147.9771,535.1
148.0499,144.3
148.0798,961.8
148.1042,22.7
148.1121,48.2
148.128,369.3
148.2072,246.7
148.2323,17.1
148.259,396.3
148.378,147.2
148.418,832.9
148.4647,178.9
148.5025,243.6
148.5131,574.2
148.5192,169.9
148.5226,18.6
148.5322,220.5
148.6252,335
148.6331,391.8
148.6339,435.3
148.6531,127.2
148.6768,122.5
148.7867,385.6
148.8152,265.8
148.8468,147.9
148.868,21.5
148.9105,374.6
148.9181,376
148.9227,293.8
148.9611,3882.4
148.9886,218
149.0025,32.1
149.0185,9091.4
149.0233,3481.6
149.0295,782.6
149.0448,348.9
149.06,182.7
149.1435,259.3
149.1642,189.1
149.1753,136.9
149.1995,20.1
149.2113,173.6
149.2375,99.5
149.3685,359.2
149.3953,133.4
149.4093,198.7
149.486,17.4
149.4996,514
149.5503,359.6
149.5603,200.5
149.5781,376.7
149.725,262.2
149.8209,18
149.8607,131.4
149.9015,324.7
149.9467,329.5
149.9579,424.9
149.9673,184
149.9872,45.9
149.9928,18066.4
149.9977,821.8
150.0138,4976.3
150.0266,93.1
150.0366,667.5
150.0614,134.3
150.0814,523.8
150.0831,291.6
150.0955,22.8
150.1187,135.4
150.1503,131.4
150.1585,368.1
150.2051,187.8
150.529,274.3
150.5616,160.8
150.5672,297
150.5765,300.6
150.6397,250.6
150.6537,18.5
150.7276,167.8
150.7375,17.9
150.7664,345.6
150.8669,205.2
150.9565,214.5
150.9593,313.2
150.9688,25.5
150.9768,97262.5
150.9841,9019.7
151.0042,21.2
151.0478,5891.9
151.0676,307.3
151.1009,115
151.1497,19.9
151.1799,122.4
151.197,232.2
151.2036,23.9
151.2272,195.6
151.3496,359.9
151.363,238
151.3824,27.4
151.4149,631.2
151.5454,280.5
151.6294,123.1
151.6435,385.7
151.7789,138.1
151.7959,116.2
151.8036,390.4
151.8345,328.9
151.8424,417.3
151.9255,18.2
151.98,550.7
151.9846,29.1
151.9874,286.4
151.9909,642.4
152.0018,230.5
152.022,6224.4
152.0317,4832.1
152.1027,149.5
152.1206,23.6
152.1469,170.2
152.1599,147.5
152.1953,18.4
152.2546,149
152.3333,380.4
152.364,256.7
152.4082,147.4
152.4188,21.9
152.4536,188.7
152.4809,121.4
152.5061,22.1
152.5406,227.2
152.5949,613.9
152.6242,175.1
152.648,129.4
152.6638,93.5
152.7668,167.5
152.808,505.5
152.828,867.2
152.9114,860.5
152.916,346.2
152.9482,154.1
152.9749,3609.1
152.9844,54.4
152.9998,23.5
153.0549,138.8
153.106,17.1
153.3033,776.7
153.3261,154.3
153.3862,137.6
153.4281,17.6
153.4689,516.2
153.4773,343.8
153.505,603.9
153.5211,293
153.6074,731
153.6112,229.1
153.6486,162.5
153.6499,218.9
153.6588,239.9
153.758,114.8
153.7756,402.9
153.7886,234.9
153.9202,124.5
153.9513,105.7
154.0005,237
154.0112,159.4
154.0265,1746.2
154.0308,21.7
154.0415,199.9
154.0587,923.8
154.0678,21.6
154.0816,540.2
154.1005,16.8
154.1244,297.7
154.1927,319.5
154.198,251.9
154.2543,134.8
154.257,176.2
154.3307,17.9
154.4195,220.4
154.4659,970.9
154.4733,277.2
154.6592,20
154.6976,273.6
154.7122,434.1
154.7206,142.8
154.785,22.8
154.8129,210.3
154.9073,61.2
154.9474,171.7
154.9582,304
154.9755,18.9
155.0003,19.7
155.0031,18.8
155.0427,3701.7
155.0491,595.8
155.0539,4409.6
155.1233,329.8
155.1434,250.1
155.1597,311.9
155.1802,19.5
155.1954,18.9
155.2861,175.4
155.3052,130.1
155.3655,143.4
155.4649,380.3
155.5265,255.6
155.5909,151.5
155.5957,192.2
155.6468,239.3
155.662,134.4
155.683,181.8
155.7415,496.1
155.8198,20.8
155.8595,23.3
155.8613,156.9
155.8701,397.2
155.8834,360.7
155.8873,290
155.892,116.7
156.0066,330.5
156.0108,58.6
156.0266,226.7
156.0327,216.8
156.0422,2920.6
156.0573,50.1
156.0767,62391.1
156.08,267.4
156.1213,465.8
156.1375,17.6
156.1814,276.3
156.2439,22.1
156.2999,129.5
156.3154,155.7
156.3331,292.9
156.3559,19.3
156.375,394.6
156.4527,19.4
156.4814,408.7
156.4965,345.8
156.5366,18.1
156.5494,221.1
156.6476,19.6
156.6599,305.4
156.7652,155.8
156.7889,306.7
156.8253,212
156.9341,777.8
156.9743,21
156.9924,16.2
157.0058,79.6
157.0598,451.4
157.0612,710.3
157.0648,587.3
157.0705,338.3
157.08,275.6
157.0888,28.2
157.0968,19.8
157.0987,275.2
157.1074,218.9
157.2508,28.1
157.3179,486.6
157.3447,126.6
157.3501,812.1
157.4377,18.6
157.4421,100.1
157.4773,471.3
157.4851,276.4
157.5231,269.3
157.5753,97.9
157.5905,222.2
157.6089,186.8
157.6191,188.7
157.6643,674
157.7061,588.1
157.7585,184
157.8083,184.4
157.8133,505.1
157.8402,225.2
157.8598,261.1
157.9177,126.7
157.9942,156.2
158.0126,133
158.018,153.1
158.0271,2658.2
158.0347,336.5
158.0436,17.5
158.0778,464.1
158.0871,261.4
158.2415,142.9
158.3367,17.5
158.4222,254.5
158.4461,206.3
158.4548,383.9
158.4913,18.9
158.5192,577.6
158.5409,221.6
158.5718,20.5
158.6467,844.4
158.6917,130.6
158.698,301.1
158.7156,148.5
158.7639,20.9
158.7839,280.5
158.8131,169.7
158.8214,246.8
158.9179,337
158.9279,741.3
158.9403,20.3
158.9475,475.6
158.9641,9492.1
158.9965,9946
159.002,118.5
159.0026,120.1
159.011,816.8
159.0157,177.7
159.0201,18.5
159.0304,134.7
159.0608,122.3
159.0646,19.4
159.0892,151.2
159.0949,206.4
159.1354,525
159.1536,171.9
159.1637,231.6
159.2313,143.2
159.2328,438.3
159.2727,307.8
159.2789,17.1
159.343,245.8
159.3934,246.4
159.415,23.4
159.4436,21.4
159.5143,501.9
159.5843,378.7
159.6481,412.7
159.6684,709.3
159.7307,265.1
159.7605,109.4
159.7697,182.5
159.7815,822.1
159.7925,177.5
159.7993,20.3
159.875,18.9
159.8831,20.5
159.9961,231.5
160.023,74.6
160.0345,30298.5
160.0424,25.6
160.0604,27434.8
160.1444,143.5
160.1773,131.6
160.2043,327.7
160.2362,411.4
160.2825,360.1
160.3021,224.9
160.3053,144.7
160.3745,116
160.3899,134.6
160.406,533.2
160.4697,121.5
160.5098,298.5
160.5127,188.5
160.5501,254.6
160.5544,294.2
160.5584,173.2
160.5762,237
160.676,785.7
160.7118,17.9
160.7164,147.6
160.7456,211.3
160.7584,328.6
160.7714,250.7
160.8822,31.2
160.9264,17.2
160.9344,132.3
160.9644,43.5
160.9822,231.3
160.9894,23.1
160.9923,179.7
161.0051,37.4
161.0183,604.5
161.0824,17.3
161.096,37.4
161.1277,288.9
161.1325,535
161.1655,347.7
161.2103,181.6
161.2226,522
161.2731,124.7
161.2846,639.2
161.3636,352.3
161.3716,406.7
161.3833,115.3
161.3888,301.9
161.4338,23.3
161.4964,19.1
161.5188,195.9
161.5372,127.5
161.5433,368
161.5512,18.4
161.5687,516.1
161.5928,205
161.6883,120.6
161.7169,481.8
161.7266,388
161.7543,898.2
161.8807,197.6
161.9129,175.9
161.9869,251.3
161.993,181.6
161.9962,18.8
162.0142,310.7
162.0276,165.6
162.0324,442.4
162.0502,24650.7
162.0531,127.9
162.0652,20
162.0686,612.6
162.0851,386.8
162.1446,588.3
162.1779,541.7
162.2434,190
162.2611,249
162.3148,267.6
162.487,436.3
162.5278,18.4
162.6379,187.3
162.6445,165.3
162.6849,167.1
162.7279,287.3
162.84,262
162.8449,128.3
162.8776,405.5
162.8802,27.5
162.9279,21.4
162.9532,195.7
162.9558,2259.7
162.9789,161.9
162.9924,16.7
163.0155,5914
163.0342,2103.7
163.0546,18.5
163.0573,17
163.0604,77.9
163.0713,606.5
163.1519,608.5
163.1725,422.8
163.2127,208.1
163.3272,535.3
163.3715,18.2
163.3761,177
163.4448,618
163.4669,123.9
163.4815,123.2
163.5519,224.9
163.5849,102.2
163.6432,137.4
163.6672,180.8
163.6752,19.3
163.677,518.8
163.6811,386.4
163.6871,162.2
163.6932,18.2
163.6975,391.4
163.7168,417
163.7605,479.1
163.8037,495.9
163.8789,221.2
163.8855,35.3
163.936,21.6
163.954,199.9
163.984,290.6
163.9995,49.4
164.0295,12768.4
164.1477,371.9
164.1773,224.7
164.2217,242.1
164.2655,211.5
164.302,134.5
164.3211,434.2
164.4059,347.8
164.4218,192.9
164.4364,263.7
164.4656,333.3
164.4759,318.9
164.54,264.1
164.566,587.5
164.5994,325.3
164.6087,151.3
164.6269,273.6
164.6389,462.3
164.6433,17.2
164.7476,112.1
164.8171,316
164.8316,241.8
164.8633,202
164.8697,264.6
164.8798,537.4
164.9014,352.6
164.9157,19.8
164.9206,2731
164.93,13861.2
164.9352,2481.5
164.961,442.6
164.9661,17.8
164.97,207.4
164.9801,352.1
164.9845,48.3
164.9926,4466.9
164.9974,136.5
164.9997,618.6
165.0129,354.3
165.0548,158.2
165.0639,137.4
165.0908,207
165.2586,181.7
165.2862,422.1
165.38,700.1
165.3822,17.1
165.3954,168.3
165.4626,227.2
165.4775,292.5
165.4951,122.8
165.5817,184.8
165.7605,140.8
165.8044,187.3
165.8975,722.6
165.9067,163.1
165.9216,182.7
165.9309,23.8
165.9603,202.9
165.9668,4504.5
165.9788,1215.8
165.9878,4999.1
165.995,3237.5
166.024,617
166.0463,516.3
166.0704,258.2
166.0827,136.1
166.0861,275.3
166.1438,487.1
166.2268,131.1
166.2305,437.3
166.2564,315.6
166.3016,125.3
166.3417,654.1
166.3615,291.5
166.3663,603.1
166.3701,268.2
166.3898,125.9
166.4081,130.8
166.4228,115
166.5725,24.4
166.5839,296.7
166.6075,223.4
166.6594,246.5
166.7423,193.1
166.7783,20
166.8115,148.7
166.9508,34961.8
166.9563,17.2
166.963,551
166.9791,28.3
166.986,722.2
166.9967,156.4
166.9985,106.2
167,130.6
167.0217,8402.5
167.055,20.2
167.0626,204.8
167.0855,408.6
167.1625,171.7
167.1757,136.3
167.3489,150.6
167.361,253.9
167.3994,22.1
167.5092,333.1
167.5402,504.5
167.5434,671.7
167.653,156.2
167.7571,287.6
167.8245,383.1
167.8304,123.2
167.8405,495.7
167.8435,357.3
167.8672,513
167.8919,292
167.8946,294.1
167.9543,379.2
167.9944,1414.5
168.0056,465.2
168.0401,188.9
168.0429,417.5
168.0553,629.7
168.0716,188.2
168.096,648.9
168.1485,346.9
168.2456,201.2
168.283,742.3
168.2843,638.5
168.3619,191.4
168.3841,725.9
168.4038,185.6
168.485,133.8
168.5343,20.1
168.5436,166.1
168.7562,306.8
168.7633,426.9
168.7827,286.1
168.801,311.8
168.8506,786.5
168.8625,221.8
168.9251,58.4
168.9373,202.3
168.9401,378.4
168.949,4593.8
168.9931,18
168.9956,47
169.0283,270.6
169.0584,90626.5
169.065,133.6
169.0949,1692.1
169.1297,354.6
169.1473,204.3
169.1542,642
169.1574,718.9
169.2491,453.7
169.3171,245.8
169.3716,281.7
169.3916,472.6
169.4238,124.4
169.4567,563
169.528,312.6
169.5351,201.2
169.5536,18.5
169.6051,512.9
169.6104,739.1
169.6253,398.8
169.6415,736.9
169.6526,136.3
169.7147,141.6
169.7463,389.9
169.7618,136.2
169.9829,366.1
169.9861,1529.2
169.9921,234
169.998,244.1
170.0328,3581.7
170.0619,954.8
170.0925,858
170.2064,389.3
170.2572,562
170.2625,455.2
170.3138,501.8
170.3785,328.1
170.3818,210.2
170.409,561.8
170.4167,253.6
170.4587,106.1
170.4641,108.3
170.4775,20.1
170.49,150.7
170.6151,222.3
170.6674,204.4
170.6744,150.4
170.6754,170.1
170.6916,551.4
170.7355,311.5
170.7395,152.2
170.7584,19.3
170.7919,17.1
170.8463,305.2
170.8545,3891.8
170.8626,187.8
170.8725,294.8
170.9141,253
171.0108,16.8
171.0166,1705.6
171.0185,17.6
171.028,154.7
171.076,150.6
171.1582,306.7
171.3125,511.9
171.3331,635.3
171.367,361
171.3832,304.4
171.3972,382.3
171.4216,505.6
171.4326,344.2
171.4646,557.9
171.5618,22.1
171.6661,108.1
171.6932,134.3
171.8187,17.8
171.8594,757.5
171.8953,328
171.9502,663
171.9522,21.3
171.9752,129.9
172.0208,418.4
172.0285,205.4
172.0554,19.3
172.0642,20.3
172.0785,245.4
172.1029,175.7
172.2955,180.4
172.3227,132.4
172.4052,24.7
172.4078,457.5
172.4439,686.9
172.4782,19.5
172.4818,145
172.5297,20.4
172.5525,175.6
172.5744,26.3
172.7482,21.1
172.7527,283.9
172.7569,541.3
172.7882,122.8
172.8515,2387.6
172.8991,64.2
172.9227,16.6
172.9708,635.8
172.9823,296.8
172.9856,238.9
172.9907,220.9
173.0267,291.6
173.0386,391
173.0564,17
173.0778,201.8
173.0814,251.5
173.3065,22.5
173.5018,290.6
173.5485,20
173.575,152.4
173.5943,175
173.6797,132.7
173.724,280.8
173.729,691.4
173.7527,503
173.7575,143.2
173.8167,119.8
173.8343,19.3
173.8571,286.5
173.8698,218.3
173.8812,21.5
173.8947,172.7
173.9322,792.5
173.9469,114.4
173.9825,340.1
174.0007,213.2
174.0416,119.1
174.1289,166.4
174.2342,125.4
174.2486,122.4
174.2537,16.5
174.2581,131.7
174.3206,180.1
174.359,301.1
174.485,693.2
174.5094,170.3
174.5817,645.3
174.5979,238.3
174.647,345.4
174.6907,196.4
174.7238,153.5
174.7818,305.4
174.7866,17.9
174.8337,334.5
174.8498,362.7
174.8599,16.4
174.8816,352.6
174.9001,257.4
174.929,163.1
174.9381,5065.1
174.9406,244.2
174.9658,18.2
174.969,2036.5
174.9873,18.5
175.0123,456.4
175.0197,193.8
175.0225,20.2
175.0343,13683.5
175.0454,2180.7
175.057,352.1
175.0806,196.7
175.085,536.4
175.1067,833.9
175.119,50425.6
175.1482,19.2
175.163,380.9
175.1809,161.9
175.2155,287.7
175.2194,249.6
175.2277,129.1
175.2314,128.8
175.2539,177.6
175.3236,26.5
175.3582,18
175.3884,216.9
175.4191,262
175.5155,169.8
175.5576,398.6
175.5764,163.9
175.6111,122.5
175.6591,321.2
175.6629,175.7
175.7297,171.8
175.7791,182.6
175.8197,241.8
175.8791,209.7
175.9369,221.3
176.0085,14611.7
176.0163,28.3
176.0234,229.9
176.0293,336.1
176.0659,41737.1
176.0938,174.2
176.1222,446.6
176.3021,217.3
176.3062,435.2
176.3446,19
176.5559,175
176.7419,424.4
176.7618,100.4
176.876,653.3
176.8937,149
176.927,24.1
176.9346,147
176.9552,541
176.9927,377.2
177.0248,6244
177.0611,3730.7
177.0691,361.3
177.1119,24.3
177.125,253.6
177.3846,21.6
177.4461,199.2
177.4756,18.9
177.6126,493.7
177.6393,176.7
177.6945,200.2
177.7198,531
177.7568,355.7
177.7613,302
177.8872,147.4
177.9712,251.7
177.9949,81.9
178.0087,6622.5
178.0159,39.6
178.0242,14836.4
178.0322,8978.9
178.036,23.3
178.0588,7516.9
178.0678,347
178.196,126.7
178.3032,231.6
178.3478,19.9
178.3914,172.7
178.4386,107.4
178.5046,347.9
178.6363,185.8
178.7651,143.4
178.8055,196.6
178.8582,400
178.893,161.8
178.9218,27
179.0002,45.2
179.0029,241.6
179.0081,899.9
179.0346,332.5
179.0514,20
179.1005,20.2
179.115,259.9
179.1271,21.4
179.1609,229.1
179.1674,202.1
179.1794,20.3
179.1944,311.5
179.2952,429.6
179.3263,120.1
179.3825,221
179.3862,501.9
179.4248,300.8
179.4983,452.3
179.5556,497.6
179.5724,368.9
179.6168,368.5
179.6351,300
179.6446,279.1
179.6493,337.7
179.6566,546.2
179.7372,163.2
179.7384,191.9
179.7504,122.6
179.8913,59.2
179.9865,22.3
180.0035,9442.7
180.0106,165.5
180.0187,281.5
180.0845,17.5
180.1057,126
180.1162,267
180.2104,658.9
180.2232,144.8
180.2567,203.6
180.3308,19.3
180.3441,244
180.3993,18
180.4715,782.3
180.6693,400.6
180.7211,510.9
180.8269,367.6
180.8882,1543.3
180.8945,1742.6
180.9041,5152.9
180.9664,933.4
180.9691,674.9
181.0089,562
181.0158,49.5
181.0265,870.8
181.0343,675.1
181.0649,4835.9
181.0874,206.1
181.1045,148.8
181.143,141.5
181.2176,129.8
181.2223,298.4
181.2561,309
181.3594,364.8
181.3747,199.7
181.4291,277.5
181.4941,18.5
181.5146,266.7
181.5414,476.3
181.5482,265.7
181.6093,172.7
181.6913,275.3
181.7191,363.1
181.7345,128.8
181.7457,141.5
181.8461,177.7
181.8789,155.6
181.8884,29.1
181.9411,471.9
182.0112,25.3
182.0293,124.1
182.0424,20129.8
182.1079,328.6
182.2325,492.3
182.2375,173.6
182.2429,18.7
182.2938,424.8
182.3099,207.1
182.3491,190.2
182.3813,144.5
182.4685,134.3
182.6341,125.1
182.7528,160.7
182.8355,844.5
182.8836,86.9
182.9051,721.3
182.9282,603.5
182.9497,23.5
182.9534,47.6
182.9571,166.6
182.9653,19.3
182.9771,20
183.0143,427.3
183.0443,320.7
183.0986,17.2
183.1061,432.4
183.1318,362.3
183.1405,137.1
183.1593,685.4
183.1709,566.8
183.1878,705.3
183.2348,135.5
183.2675,293.5
183.3003,300.8
183.3377,166.5
183.3885,239.3
183.4223,18.1
183.4287,260.8
183.4311,176.6
183.4341,851.4
183.4512,589.4
183.5277,329.4
183.6659,372
183.7128,155.6
183.7623,141.4
183.843,573
183.9204,266.8
183.9248,169.9
183.9311,207.6
183.9645,425.2
183.9717,18
184.037,862.7
184.0639,587.9
184.0663,882.6
184.0734,4776890.5
184.0778,5956.6
184.0806,574.2
184.0819,420.1
184.0828,581.7
184.0846,590
184.1,334.2
184.1097,1577.7
184.1204,407.9
184.155,267.6
184.1822,1013.9
184.217,411.8
184.3132,104.5
184.3436,161.8
184.5175,29.9
184.6188,324.9
184.6421,512.5
184.6859,322
184.6933,150
184.7398,137.8
184.7477,187.5
184.7982,329.9
184.8677,21.3
184.8983,355.9
184.9163,199.9
184.9234,449.9
184.9297,66.9
184.9344,463.7
185.0237,545.5
185.0266,390
185.0324,87711.3
185.0704,10394.5
185.0767,224365.4
185.1313,24.7
185.1573,647.8
185.1787,173.3
185.2251,555
185.2702,149.8
185.3195,207.6
185.4588,119.7
185.4968,236.8
185.5474,21.2
185.6482,266.6
185.6674,179.8
185.6736,133.1
185.7008,306.9
185.7621,298.4
185.7687,218.6
185.8091,317.1
185.8228,601.8
185.8294,295.7
185.8413,16.1
185.8721,370.6
185.9321,23.3
185.9475,719
185.9602,462.1
185.9988,17.9
186.0358,1643.3
186.038,718.5
186.0386,700.8
186.0716,16.9
186.0776,29504.6
186.0903,162.6
186.1277,163.5
186.2069,563.4
186.3589,18.1
186.4513,137.7
186.4776,19
186.5653,306
186.5732,387.4
186.6149,234.7
186.7383,16.6
186.836,141.2
186.8634,411.1
186.8674,17.3
186.8784,120.1
186.912,2408.6
186.9239,17
186.9585,17.5
186.9691,447.4
187.0117,372.5
187.02,127.7
187.0305,2076.4
187.0533,138.4
187.0578,12708.5
187.1077,499.2
187.1154,17.9
187.1255,19.9
187.1765,165.7
187.2002,295.6
187.2184,19.6
187.3767,131.2
187.394,405
187.4373,16
187.4397,160.5
187.5199,121.1
187.545,223.8
187.5497,94.5
187.5807,176.6
187.5876,136
187.6025,126.3
187.6089,353.2
187.7118,644.2
187.7285,17.9
187.7824,265.7
187.8131,292.1
187.8269,19.2
187.886,27.6
187.9486,17.4
187.963,209.9
188.0336,449.4
188.0969,380.9
188.1571,133.7
188.1727,391.7
188.178,314.3
188.2379,474.6
188.5377,318.1
188.5907,415.3
188.7154,150
188.7313,17.7
188.7819,141.9
188.8298,623.4
188.872,18
188.8735,143.6
188.8773,83.1
188.9047,144.4
188.9073,731.7
188.9245,39.5
188.945,864
188.949,231.3
188.9949,17.7
189.0071,768
189.0209,158.1
189.036,34.8
189.0385,19.5
189.061,3345.5
189.0718,292.2
189.0871,5466.2
189.1283,349.7
189.1358,435.6
189.1645,174.9
189.1705,400.5
189.3785,20
189.5157,17.9
189.5276,192.1
189.5942,133.5
189.6548,17.6
189.6866,18.9
189.6898,234.5
189.7644,158.5
189.8138,181.6
189.8195,378.3
189.9036,158.6
189.9796,304.7
189.9848,185.7
190.0648,144.1
190.0707,494.3
190.1334,202.2
190.1894,117.8
190.2212,196.8
190.2402,150.5
190.2801,258.5
190.3008,19.1
190.3034,96.1
190.3435,184.2
190.3679,17.9
190.4133,19.4
190.5595,646.6
190.5975,441.8
190.6111,160.2
190.6137,197.8
190.6801,19.7
190.6828,314.7
190.8107,167.1
190.8176,168.8
190.8727,1133.1
190.8918,137.6
190.9001,274.8
190.912,600.2
190.9362,154.2
190.9445,17.4
190.9484,131.7
190.9797,200.2
191.0003,197.3
191.0082,10437.3
191.0198,445.5
191.0405,156761.8
191.0769,17472.5
191.1424,24.7
191.4054,227
191.4657,21.8
191.4723,122.5
191.5037,150.9
191.5127,19.9
191.5388,359.3
191.5808,18.2
191.6178,714.1
191.6635,173.8
191.6706,203.9
191.674,18.3
191.6906,123.6
191.7011,300.5
191.7181,288.9
191.8009,259.6
191.8808,69.2
191.9825,1804.1
192.0121,670.6
192.0399,17470.2
192.0438,4272.4
192.0885,20.7
192.1943,186.9
192.3109,205.1
192.3664,185.5
192.3845,185.6
192.4475,284.9
192.4711,199.8
192.5342,17.8
192.5412,332.7
192.6028,421.7
192.6448,261.9
192.6746,573.7
192.7321,263.4
192.7368,174
192.7821,135
192.8165,357.5
192.8815,163.2
192.8987,214.4
192.9107,120.1
192.9387,17.5
192.9465,178
192.9614,983.6
192.9797,382.1
192.9852,218.6
192.9926,20.4
192.9988,4138.8
193.0159,209.5
193.0275,471.8
193.0351,1368.3
193.0641,152.1
193.0693,621.4
193.0985,145.6
193.1457,451.1
193.1554,198.7
193.1698,17.1
193.281,22.2
193.3087,545.3
193.4018,290.1
193.4927,210.9
193.535,289.3
193.724,178.8
193.8107,163.3
193.8439,509.9
193.9084,481.6
193.9234,16.6
193.9419,240.9
193.9622,214.5
193.984,17.3
193.9982,1906.5
194.0328,2487.8
194.0381,845.9
194.0773,366.2
194.154,50.3
194.1639,345.2
194.1759,170.9
194.2906,400.1
194.3084,23.1
194.3201,268.4
194.3653,139.3
194.3878,17.8
194.408,21.4
194.4587,19.5
194.6387,240.1
194.6512,202.5
194.6695,17.4
194.7339,17.9
194.7867,663.1
194.8495,193.4
194.9038,477.1
194.974,259.6
195.0112,23.6
195.0204,304.8
195.0295,18.6
195.0439,552.3
195.1287,271.6
195.1596,199.2
195.4131,20
195.4837,267.7
195.4943,307.2
195.5729,530.7
195.8462,317.5
195.8841,180.4
195.9039,23
195.9771,477.3
195.9979,154.4
196.0164,202.4
196.0495,278.4
196.0716,121.5
196.0791,373
196.0823,123.7
196.1173,191.1
196.1697,301.5
196.2306,505.7
196.2455,450.7
196.277,419.6
196.3132,145.7
196.3659,812.2
196.3714,151.3
196.448,259.2
196.4734,210.6
196.5148,660.1
196.566,321.5
196.5773,206
196.5964,21.9
196.7975,263.7
196.8135,148.9
196.8653,4690.4
196.8781,2171.3
196.9299,328.4
196.9325,304.3
196.9415,159.6
196.967,411.8
196.9743,198.3
197.0663,195.7
197.1684,359.4
197.1726,21.8
197.2608,253.3
197.3173,175.4
197.4269,458.3
197.4865,290.4
197.6097,481.4
197.6165,127.4
197.7988,156.2
197.8097,376.3
197.8145,508.4
197.8375,144.7
197.865,253.6
197.8911,102
197.9434,491.9
198.0143,294.4
198.0244,593.5
198.085,1538.6
198.18,298.7
198.1854,4427
198.227,346.3
198.2381,160.3
198.2596,128.2
198.3447,167.8
198.3484,251.5
198.3551,140.2
198.3667,208.5
198.4137,235
198.4464,232.5
198.6339,310.4
198.6426,826.5
198.675,18.2
198.736,129.5
198.7731,221
198.8368,19.1
198.8545,21
198.8624,4448.9
198.8884,187.6
198.8999,139.1
198.9135,385.1
198.9669,421.3
199.0167,79.8
199.0325,95.1
199.0692,202.9
199.0756,299.3
199.0803,19.8
199.1882,475.4
199.2403,184.4
199.2728,442.5
199.3529,893.3
199.3627,236
199.4852,20.4
199.51,332.9
199.6373,177.4
199.7476,550.7
199.8255,129.5
199.8813,16.8
199.9313,96.2
199.9405,277.6
199.9711,267.2
199.9907,27506.5
200.0013,36.8
200.0339,18.8
200.0408,25048.2
200.063,130.5
200.07,143.5
200.1274,203.1
200.1515,228.4
200.1607,134.7
200.1945,678.6
200.2402,559.2
200.2444,445
200.2597,594.5
200.2662,249.3
200.2873,787.9
200.2907,227.9
200.2941,21.8
200.3395,8424.6
200.3856,182.4
200.3932,21.1
200.4102,117
200.4413,352.2
200.4474,185.1
200.4787,261.2
200.8094,658.6
200.8272,405.6
200.8421,24.7
200.8593,689.7
200.8875,24.8
200.8943,4038.9
200.9152,142.6
200.9388,842.1
200.9509,609.8
200.9965,273
201.017,731.5
201.0796,19.1
201.0879,250.6
201.1598,228.5
201.2125,350.8
201.3409,490.9
201.4485,270.9
201.4978,128.7
201.512,136.6
201.5209,125.6
201.5383,189.8
201.5791,17.1
201.5865,814.3
201.6011,18
201.663,231
201.8288,232.6
201.8601,177.2
201.8647,276.7
201.8791,529.8
201.8945,345.3
201.9553,277.4
201.9957,27.3
202.0163,98.6
202.074,18.1
202.0798,133.5
202.1216,315.2
202.2447,133.6
202.3078,271.7
202.5188,261.3
202.5829,23.2
202.5879,315.7
202.6171,789.2
202.6662,14759.3
202.6737,23.2
202.7287,395.7
202.7329,21.2
202.7487,734.7
202.759,438.6
202.7903,161.3
202.8579,328.9
202.871,460.6
202.8953,79.8
202.9909,494
203.032,4418.4
203.0528,2038874.8
203.0768,8043.9
203.103,424.3
203.1798,25.1
203.2017,157.3
203.3577,237.9
203.3838,144
203.4115,18.8
203.4563,362
203.4889,227.3
203.5184,18.1
203.5226,671.2
203.5283,485.1
203.55,142.1
203.5871,22.7
203.6658,233.1
203.7094,738.5
203.7131,193
203.8635,263
203.8657,97.2
203.9243,388.2
203.9614,189.6
204.0244,36884.3
204.032,453
204.0561,107361.5
204.063,289.7
204.0798,247.2
204.1287,461.7
204.1679,526.1
204.2359,711.1
204.2433,267.7
204.2739,178.1
204.3068,713
204.3187,282.6
204.5493,358.4
204.5506,344.6
204.6245,761.3
204.7054,23.7
204.7176,18.1
204.7811,136.5
204.8311,239.8
204.8454,18.3
204.867,177.2
204.8731,24.4
204.8888,640.1
204.9408,1086.8
205.0019,623.9
205.0456,350.3
205.057,16845.4
205.062,116.8
205.0683,1269.2
205.0834,25.4
205.1019,352.1
205.132,354.7
205.1898,176.3
205.2351,18.1
205.3112,355.3
205.3481,369.5
205.4658,285.9
205.5615,244.1
205.6123,439.9
205.6576,542.6
205.7168,371.6
205.7485,116.7
205.7947,270.7
205.8892,36
205.9371,107.1
205.9404,739.5
205.9755,408.8
206.0151,105.8
206.0202,20.6
206.0399,226.4
206.0474,96.6
206.0553,1571.1
206.0599,120.1
206.1967,136.6
206.2196,221.6
206.3355,176.8
206.3467,290.5
206.5167,504.2
206.5642,291.8
206.5826,328.4
206.6028,309
206.6274,130.8
206.6853,268.5
206.7149,329.7
206.7236,264.6
206.7281,390.1
206.7633,398.4
206.7783,258.1
206.8215,335.4
206.8878,306.4
206.8941,15138.3
206.9169,306.2
206.9266,22.6
206.9496,24
206.9536,221.6
206.9758,130.1
206.9823,3902.1
206.9979,200.1
207.0144,94824.4
207.0322,17.3
207.0444,651.2
207.0472,24.8
207.0508,7831.3
207.0859,654.1
207.0897,691.9
207.1712,505.1
207.218,26.3
207.2591,129.1
207.292,21.7
207.3494,18.9
207.4038,200.1
207.5057,282.3
207.6141,285.6
207.622,270.7
207.7116,340.8
207.8113,17.5
207.8803,367.3
207.8862,172.1
207.9306,386.7
207.9823,275.9
207.9908,1389.1
208.0138,3857.3
208.0178,2282.9
208.0294,609.1
208.0428,22.2
208.0474,247.4
208.0585,184.4
208.1682,119.2
208.2298,176.2
208.251,23.5
208.2555,18
208.4739,17.9
208.4858,253.4
208.4889,306.8
208.5161,513.9
208.58,406
208.5987,383.5
208.618,218.6
208.8832,3398.2
208.8912,6379.2
208.9359,823.8
208.9703,116.4
208.9798,125.4
209.0124,3189.9
209.0761,390.6
209.1688,368.9
209.2329,887.5
209.2413,328.3
209.2464,18.8
209.2939,21.9
209.3166,243.9
209.4043,260.3
209.4552,21.4
209.4752,250.9
209.4898,20
209.5731,21.6
209.5785,330.4
210.653,128.8
210.7155,303.2
210.7392,321.3
210.7589,365.8
210.7956,549.4
210.8033,147.1
210.8127,280.7
210.847,350.7
210.8575,110.9
210.8837,25
210.8882,811.2
210.95,221.8
210.9664,390.7
210.9695,797.2
210.9896,248
211.0034,18
211.0087,306.3
211.0324,430.9
211.0486,188.8
211.0615,461.5
211.069,971.7
211.1301,150.7
211.1751,231
211.2551,438.6
211.3354,21759.9
211.339,29453.5
211.3454,15697.1
211.3507,11710.1
211.3564,12989.3
211.3696,17.4
211.4093,338.3
211.5639,148.7
211.7433,18.1
211.7748,214.4
211.8665,23
211.9352,34.1
211.9446,31.5
211.9488,21.3
211.9592,45.6
211.9677,247.7
212.0044,350.2
212.045,20.4
212.0477,176
212.0646,20.5
212.074,45
212.1099,148.3
212.2211,381.5
212.2808,126.4
212.3035,19.4
212.3364,431.1
212.5754,169.1
212.5876,222.4
212.6396,417.4
212.6445,135.8
212.6595,469.7
212.8062,169.8
212.8392,2202.6
212.8788,22.6
212.8859,122.1
212.8907,371.3
212.9076,823.5
212.9392,340.1
212.9652,36.5
213.0138,526.2
213.0191,583.5
213.0268,301.2
213.032,60.7
213.0547,254.3
213.1595,183.4
213.2076,19.5
213.3601,614.9
213.4746,438.4
213.5115,141.6
213.5905,368.1
213.6328,325.8
213.6571,306.7
213.6705,185.8
213.7332,263.2
213.7478,192.1
213.8049,224.4
213.8176,205.3
213.8837,449.3
213.8914,252.3
213.9621,3705.8
213.9848,164.2
214.0064,2078.1
214.059,3093
214.0898,1167.1
214.1276,332.4
214.1563,21.7
214.1738,291.7
214.2202,19.9
214.2212,20.5
214.2224,19.6
214.2786,127.4
214.3224,18.2
214.3725,482.4
214.3861,317.4
214.3957,190.3
214.4149,282.4
214.5297,628.1
214.5631,260
214.6696,389
214.6979,172
214.8363,2369.4
214.8459,17.4
214.8743,561.9
214.893,1337.4
214.9099,627.4
214.9466,320.8
214.9626,146
214.9653,136.1
215.0584,733.5
215.0671,23.9
215.0934,44.8
215.0976,275.8
215.1884,267.5
215.2802,287
215.3176,335.7
215.3631,245.4
215.3988,152.8
215.5341,500.7
215.566,344.2
215.6239,20
215.6846,391.9
215.7889,238.9
215.8213,392.3
215.8397,570.4
215.8488,152.8
215.8739,68.9
215.8809,91.2
215.9103,64.3
215.996,20
216.0014,22
216.0147,12343
216.1422,144
216.2042,542
216.2904,225.2
216.3759,173
216.4083,339.4
216.5032,611.1
216.6374,17.6
216.7041,433.8
216.8275,166
216.8344,326.8
216.8722,40.6
216.8888,24.2
216.9229,45233.8
217.0212,242.5
217.0245,20.9
217.0271,30.6
217.0562,170.3
217.0896,364.1
217.185,20.4
217.2924,203.2
217.4329,363.7
217.4707,404.3
217.4919,19.1
217.5635,507.8
217.587,159.6
217.6124,106.8
217.6245,252.9
217.7382,220.1
217.9067,23.2
218.0823,301.4
218.1067,190.9
218.1225,383
218.1517,39.6
218.1694,154.2
218.2826,165.9
218.3006,21.1
218.357,110.6
218.3934,658.4
218.4092,427.2
218.4577,198.6
218.4745,198.6
218.515,221.7
218.525,250.3
218.5343,319.5
218.7204,350.8
218.7582,20.4
218.7687,141.6
218.7814,716
218.8571,227
218.8675,328.8
218.8862,528
218.8951,164.7
218.9046,416.9
218.9199,14319.1
218.952,154.1
218.987,311.6
219.018,1489.2
219.0267,1891717.5
219.064,182.6
219.0782,150.8
219.0831,5610.4
219.0993,398.2
219.316,369.6
219.3233,341.3
219.3742,470.1
219.4044,330.6
219.4835,341.4
219.5283,197.8
219.5727,202.5
219.615,444.4
219.688,261.5
219.7058,218
219.7459,209.8
219.765,20.5
219.8876,251.6
219.8983,586.8
219.9661,185.5
219.9991,143.5
220.0301,95772.3
220.0372,573.7
220.0426,19.5
220.0671,4095.2
220.0777,178.3
220.0855,195.7
220.1674,443.1
220.1939,145.4
220.2358,367.7
220.291,222.4
220.3862,23.9
220.5614,192.7
220.618,344.7
220.7544,270.8
220.8033,225.6
220.839,199.9
220.8491,122.8
220.8838,73.5
220.9036,78.9
220.9111,18.6
220.9325,82.6
220.9465,430
220.9725,141.9
220.9988,427.1
221.0087,640.3
221.0248,110984.9
221.031,16939.9
221.0505,365
221.0566,143.6
221.0846,994.5
221.1651,313.5
221.171,22.6
221.3824,443.8
221.4189,19
221.5615,258.7
221.589,199.4
221.644,848
221.6971,165.4
221.7889,249.3
221.9497,319.9
221.9562,75.2
221.9839,991.3
222.0282,2261.3
222.0853,281.7
222.0869,266.8
222.1002,17.5
222.1238,413.9
222.1335,393.8
222.1438,157.3
222.2216,288.1
222.2389,18.6
222.2768,140.9
222.4643,122.5
222.4748,292.5
222.527,468
222.5401,149.4
222.6185,246.8
222.6248,419.6
222.7498,138.9
222.7596,22.4
222.8253,19.9
222.868,12147.1
222.8795,878
222.8988,787.9
222.9168,239.2
222.9337,291.6
222.9539,1610.4
222.9883,11526.6
223.0293,380.6
223.0364,515.8
223.0639,151.6
223.0723,450.1
223.073,451.6
223.0814,54.6
223.1287,171.6
223.3569,132.3
223.369,629
223.3958,255.5
223.4125,481.9
223.4304,444.4
223.499,143.4
223.6705,178.7
223.6733,428.3
223.7775,163.3
223.8624,17
223.8819,138.5
223.8915,143.7
223.9534,20.4
223.9608,163.6
224.0293,647
224.0635,17.7
224.0761,378.7
224.0982,24.4
224.1742,208.7
224.1874,239
224.2785,329.6
224.4344,522.2
224.6926,415.6
224.7348,359.9
224.865,7228.5
224.8751,180.8
224.8913,184.2
224.9095,363.8
224.9276,139.9
224.9301,376.3
224.9357,21.4
224.9474,23.5
224.9845,402.7
224.9924,170.7
225.0144,410.9
225.0242,24
225.0431,124.7
225.0548,16506.7
225.0849,831.8
225.1185,729.8
225.1586,530.2
225.1825,542.3
225.2051,227.8
225.2451,635.7
225.3078,564.5
225.3541,21.4
225.3637,507.9
225.4782,184.1
225.4959,431.7
225.605,142.4
225.6547,329.8
225.7024,190.5
225.7571,20.7
225.8302,372.8
225.8551,162.4
225.9625,91.9
225.9954,309.6
226.0002,151.6
226.0066,754.1
226.0243,6990.2
226.0453,6826.5
226.0735,141.1
226.1098,198.5
226.181,466.3
226.1882,430.3
226.2086,301.9
226.2549,224.1
226.4073,185.2
226.4414,329.5
226.4593,22.6
226.4849,231.3
226.5112,228.2
226.5907,199.3
226.6403,298.9
226.7337,23.9
226.7384,174.9
226.7585,22.7
226.7788,121.1
226.8937,24.8
226.9517,41628.1
226.9754,342.3
227.0112,21.3
227.0347,158.9
227.0509,393.1
227.0793,2014.4
227.0865,161.2
227.1606,222.3
227.3915,218.9
227.4866,406.9
227.4926,563.9
227.4964,25.5
227.733,132
227.7537,677.9
227.9014,251
227.9136,629
227.916,523.2
227.9479,150.3
227.9551,992.4
227.9621,565.9
227.9708,17.8
227.9774,364.3
228.0002,804
228.0047,371.6
228.0224,986.5
228.175,27.6
228.1878,18.2
228.2329,379.8
228.4077,421.2
228.4397,19.7
228.4883,283.2
228.5072,211.7
228.5206,453.1
228.5953,401.3
228.6318,658.1
228.6339,627.6
228.6468,127.4
228.7272,669.8
228.7409,236.1
228.7852,196.5
228.8135,601.3
228.8173,324.9
228.8892,55.8
228.9603,227.3
229.0011,22.4
229.026,371.3
229.1707,265.5
229.2415,20.8
229.2578,17.5
229.3691,291.3
229.4008,335.4
229.4408,583.1
229.4529,358.9
229.5289,406.9
229.5324,436.4
229.6335,467.8
229.6972,317.5
229.7288,286.1
229.7909,141.6
229.8778,129.5
229.9186,128.3
229.9304,163.8
229.9337,176.5
229.9441,192.1
229.957,14191.3
229.9718,580.6
229.9804,448.1
230.0303,19.9
230.0333,114
230.0656,19.7
230.1209,319.5
230.1342,169.8
230.1403,24.4
230.1638,297.5
230.1732,444.6
230.3429,28.9
230.4535,429.4
230.6163,755.9
230.6809,170.4
230.7405,452
230.7584,283.7
230.7835,229.9
230.8005,523.2
230.8052,327
230.8318,157.4
230.8902,613
230.9091,193.8
230.9239,546.7
230.9603,484.9
231.0989,162.4
231.1638,349.3
231.1772,131.8
231.4337,218.9
231.4875,627.2
231.4965,205.3
231.5901,330.8
231.6037,204.6
231.6561,401.2
231.6625,314.1
231.6811,348.5
231.7596,310.7
231.9395,20.1
231.9529,337.8
231.9574,387.5
231.9723,376.5
231.9885,367.3
231.9951,109.8
232.0171,365
232.031,321.4
232.0677,389.7
232.1259,140.7
232.1407,486.4
232.1445,848.4
232.1906,350.2
232.2173,19.1
232.3062,204.1
232.348,257.5
232.392,204.2
232.5122,449.8
232.536,437.2
232.5543,184.3
232.5833,127.7
232.6895,314
232.7296,21.2
232.8128,162.2
232.8837,180.9
232.8969,33934.1
232.9182,796
232.9227,41.3
232.9374,123.6
232.9689,287.5
232.9859,2885
233.051,7610.1
233.1202,332.2
233.1499,18.3
233.1605,317.9
233.2848,541
233.3838,158.4
233.3893,182.9
233.5348,153.7
233.559,556.5
233.5725,133.9
233.6378,143.8
233.691,19.1
233.7288,173
233.7382,717.4
233.7477,184.3
233.8805,22.9
233.8854,22.9
233.8908,169
233.9077,105.9
233.9395,137.1
233.9529,136.9
233.9639,19.5
234.0044,185.7
234.0078,169.4
234.0328,127.6
234.0605,363.4
234.0911,182.4
234.1857,190.2
234.2951,19.2
234.3432,732.6
234.4022,345.7
234.4164,287.5
234.5332,20.2
234.5577,113.2
234.8171,571.5
234.8938,9860.2
234.8997,109.5
234.9195,22.3
234.9452,242.7
234.9816,4478.4
234.9899,563
235.0569,1267
235.0665,1131.6
235.0926,2905.6
235.104,468.6
235.1052,513.6
235.107,494.2
235.1134,827.7
235.1455,193.3
235.1745,494.9
235.2231,959
235.3061,685.4
235.3145,245.8
235.336,172.6
235.465,692.7
235.6157,22.1
235.6433,461.2
235.7965,367.9
235.8453,190.4
235.8545,20.3
235.8997,24
235.9674,427.3
236.0221,161.3
236.0407,595.1
236.0717,65174.7
236.0904,1086.5
236.128,359.3
236.1399,334.9
236.1797,229.5
236.2592,27
236.3578,19.2
236.4697,462.2
236.5226,244.8
236.5475,485.4
236.6883,157.5
236.6962,197.4
236.7293,417.2
236.7335,131.9
236.7605,360.9
236.7652,502.9
236.8366,685.9
236.8481,653
236.8781,583
236.907,162.2
236.9149,19
237.0306,490.4
237.0573,267.1
237.0666,409.1
237.0712,60.5
237.075,2649
237.1475,433
237.1509,338.9
237.392,259.1
237.4346,469.7
237.508,169.2
237.512,178.4
237.6267,299.4
237.6779,731.1
237.695,200.7
237.7365,436.3
237.8098,18.4
237.8235,24.3
237.8317,491.9
238.0194,647.6
238.0675,876.1
238.0763,675.1
238.1084,106
238.1853,691.9
238.2928,686.6
238.4193,419
238.4542,17.5
238.5262,669.6
238.5624,149.1
238.6732,365.7
238.7686,695.7
238.7722,303.1
238.842,4339.3
238.8604,23.2
238.8626,491.6
238.9067,191.1
238.9431,51.2
238.9992,447
239.0091,6556.9
239.0504,177.2
239.0538,297.5
239.0632,243.5
239.0705,21.2
239.1309,22
239.1406,188.8
239.5081,188.6
239.6665,315.4
239.805,403.9
239.9373,188.2
240.0473,284.4
240.0785,263.5
240.1773,136.3
240.2221,276.2
240.2237,267.8
240.2286,326.9
240.3522,203
240.3998,18.1
240.4277,18.4
240.4378,135.1
240.4952,172.4
240.5662,452.5
240.5736,20
240.594,361.4
240.8029,168.9
240.8389,2180.9
240.9141,119.7
240.9398,129.3
240.9513,582.1
240.9549,872.4
240.9676,1953.5
241.0087,499.1
241.0659,448.4
241.1199,292.6
241.1763,495
241.2852,22.8
241.3636,26.1
241.3715,253.1
241.3873,239
241.421,194.9
241.4722,254.3
241.6601,166.7
241.6678,19.2
241.6719,314
241.7751,180.9
241.8215,136.9
241.8267,283.6
241.8407,337.5
241.8529,207.5
241.8946,243.2
241.9178,233.9
241.9276,528.9
241.9651,533.2
241.9715,252.1
241.9774,120.1
242.0193,2848.1
242.0499,289.6
242.0679,203.6
242.1823,343.6
242.2122,343.7
242.2152,715
242.2202,140
242.2653,154.4
242.5157,182.6
242.6221,422.6
242.7038,170.9
242.786,18.8
242.7906,420.6
242.8132,65.6
242.8197,833
242.8418,450.4
242.9035,17.9
242.9257,22875.1
242.9402,200.7
242.976,49.9
243.0066,279.8
243.0531,6453.4
243.0653,4679.3
243.07,228
243.0991,18.8
243.1817,713.7
243.3142,131.5
243.3822,294.7
243.4019,276.3
243.4348,139.5
243.4459,230.9
243.5364,307.4
243.5597,148.3
243.6118,364.9
243.772,321.4
243.8023,133.3
243.8431,211.8
243.9727,5221.4
244.0003,262.6
244.0017,530.3
244.0028,490.4
244.0126,245.8
244.0395,546.7
244.0425,162.9
244.0526,22.9
244.1228,320.8
244.2389,207.7
244.2528,452.2
244.3531,19.3
244.4264,294.2
244.4894,362.4
244.4951,198.5
244.5281,815
244.5582,519.4
244.7754,255.5
244.8075,431.7
244.8338,479.5
244.8665,20.8
244.8708,5747.3
244.9238,1220.5
244.976,146.6
244.9969,426.2
245.3907,748.7
245.4836,556.3
245.5293,340.5
245.6847,19.7
245.7278,190
245.7873,18.3
245.8193,141.7
245.9685,78.8
245.9728,59.5
245.9889,73.9
246.0012,71.6
246.1858,374
246.3159,19.1
246.3828,16.4
246.4187,164.9
246.5838,142.8
246.7434,506.9
246.7817,19.6
246.8077,170
246.8625,955.6
246.912,667
246.9516,3932.7
246.9639,197.8
247.0376,602.2
247.0666,1061.9
247.088,212.9
247.0927,1618.4
247.1461,342.8
247.1569,140.2
247.2938,115.1
247.3019,671.9
247.3131,150.5
247.4966,164.3
247.5674,336.5
247.5978,235
247.6253,196.1
247.646,17.9
247.7418,324.2
247.8047,381
247.8229,17.8
247.9234,83.4
247.9676,768
247.9832,1089.5
248.0393,134.1
248.0881,173.8
248.0953,21
248.1179,191.1
248.1243,14566.2
248.247,17.4
248.2608,140.7
248.2983,368.7
248.3208,23.1
248.5608,277.6
248.5639,270.9
248.6478,324.5
248.8003,214.4
248.8208,18.9
248.8654,20.4
248.871,5871.1
248.9007,170.3
248.9153,87.6
248.9483,204.1
248.9596,1112.3
248.9929,177.6
248.9991,1138.4
249.0042,640.5
249.0158,672.5
249.0613,11444.9
249.1172,303.5
249.1275,455.3
249.1316,189.7
249.1362,343.1
249.1571,284
249.1726,131.6
249.2335,18.1
249.2512,166.6
249.2878,251.4
249.4709,422.3
249.4962,193.7
249.5583,348.2
249.5688,18.1
249.6754,215
249.7007,19
249.774,181.8
249.7981,21.8
249.8865,39.7
249.9449,445.2
249.968,48.1
250.0382,477.3
250.0513,20.7
250.0654,457.4
250.2732,221.6
250.3411,343.8
250.4684,426.5
250.4699,644.5
250.4712,487
250.4967,137
250.6115,250.4
250.6694,326.9
250.6903,330.5
250.7389,186.6
250.7632,538.7
250.7784,299.1
250.852,19.4
250.8674,945.8
250.8937,308.5
250.9151,103.6
250.9204,5775.9
250.9278,534.2
250.9557,2749.2
251.0321,494.6
251.3173,437.7
251.405,306.1
251.4636,593.7
251.4938,140.7
251.7801,292.5
251.7969,193.4
251.8138,404.9
251.9805,142.1
252,252.1
252.0236,198.9
252.0365,86.2
252.0457,122962.5
252.1389,193.1
252.2404,280.9
252.335,370.2
252.9103,91.1
252.9176,3196.8
252.9303,360.4
252.9514,101.2
252.9562,26.6
252.9643,485.6
253.0397,355.3
253.0492,8005.8
253.0785,167.1
253.1019,909.4
253.3562,182.2
253.3766,287.1
253.4141,22.3
253.4989,126.2
253.5388,505.8
253.5466,243.1
253.5897,254.2
253.6776,104.9
253.6945,142.3
253.6989,515.7
253.7884,408.9
253.798,361.2
253.8837,318.9
254.0198,354.1
254.0428,2792.5
254.0749,123.8
254.1205,170.5
254.1812,288.5
254.2623,169.3
254.447,181.8
254.4921,416.3
254.577,785.3
254.7011,129.9
254.8239,7891
254.8423,507.3
254.8766,196.2
254.9861,140.4
255.0035,16.9
255.033,23500.3
255.0381,912.4
255.0473,283.9
255.238,356.8
255.3354,158.2
255.3485,430.7
255.5069,178.9
255.5708,276.6
255.6355,490.9
255.643,126.6
255.7401,311.8
255.7562,463.9
255.8884,199.8
255.9427,234.7
255.9736,24
255.9783,689.9
256.0034,2964
256.05,111.6
256.0587,20.3
256.0981,499.7
256.2869,23.7
256.381,270.7
256.3871,169.8
256.4982,24
256.6035,224.8
256.6261,439.5
256.7596,804.6
256.821,9997.3
256.8506,267
256.9408,599.2
256.9824,45.2
257.0082,264.2
257.0221,274.2
257.0487,6954.6
257.0746,39598.5
257.1456,329.1
257.3144,139.2
257.3601,135.6
257.4039,199.8
257.4094,460
257.5696,143.1
257.6367,357.8
257.6895,143.9
257.6926,231.3
257.7305,318.7
257.7703,752.5
257.952,294.3
257.9807,505.3
257.9885,82.8
258.0299,441.8
258.0406,173.7
258.0546,499.2
258.0601,155.5
258.0742,86.6
258.0783,1042.2
258.0919,176.9
258.1103,8492.8
258.174,411.5
258.2005,321.8
258.2098,260.3
258.3789,755
258.3924,360
258.3977,171.2
258.4801,22.2
258.5705,575.8
258.5805,228.2
258.6704,676.3
258.6742,285.8
258.8083,29.1
258.8182,3390
258.8626,36.6
258.8997,2396.6
258.9283,207
259.0279,662.8
259.0658,156.5
259.1437,488.9
259.1475,133.5
259.233,281.9
259.3661,120.6
259.3718,265.6
259.3773,580.9
259.5564,130.9
259.5607,177.8
259.5699,210.8
259.5766,1241
259.6388,19.8
259.6574,210.5
259.7088,19.1
259.7953,21.3
259.9086,162
259.965,1846.1
260.0538,432.9
260.0734,562.2
260.1254,135
260.1461,398.8
260.4344,181.2
260.4388,248.7
260.5509,205
260.706,134.8
260.752,118.5
260.7638,559.3
260.8066,586.3
260.8449,3358.9
260.8782,32.1
260.8977,711.5
260.9492,15992.9
260.9781,280.3
261.0025,443.7
261.0331,382.1
261.0427,272.1
261.0458,328.7
261.2036,266.5
261.2414,18.8
261.3661,743.7
261.3837,491.9
261.4369,266.1
261.4978,131.6
261.5351,147.3
261.6096,364.2
261.6894,425.5
261.8191,202.1
261.9235,406.6
261.9834,251.3
262.0253,313.2
262.0504,737.4
262.1105,183.7
262.1455,239.1
262.1551,441.3
262.1923,19.9
262.4113,187
262.4495,287.1
262.5018,397.1
262.6016,24.8
262.7235,183.9
262.8398,28.2
262.855,331.7
262.9159,393.9
262.9317,28.9
262.9463,2552.3
262.9934,183.8
263.0158,19.4
263.0853,2557.3
263.1426,262.6
263.168,367.2
263.1879,128.8
263.2349,120.3
263.289,670.9
263.4744,304.5
263.7076,20.1
263.7373,108.7
263.7443,24.9
263.8903,431.5
263.9267,170.5
263.9514,368
263.9877,762.9
264.0238,309.5
264.0521,17.8
264.1188,153.9
264.2964,615.4
264.2997,887.2
264.4619,307.5
264.5244,189.3
264.5438,375.5
264.695,445.5
264.7452,461
264.7498,134.3
264.7763,741.7
264.7935,403.3
264.8074,166.2
264.844,744.8
264.8529,3927.9
264.8725,764.9
264.8823,20
264.9018,681.9
264.9338,3589.7
264.9735,660.2
264.9884,14010.3
265.0164,49.8
265.0237,997.5
265.0353,5889.6
265.0402,622.5
265.0474,2135.6
265.0661,116.2
265.085,211
265.0933,114.2
265.1997,271.8
265.3282,409.3
265.3824,222.4
265.4077,153.8
265.5394,202.3
265.5599,278.4
265.8594,20.6
265.9102,601.4
265.9277,495.1
265.9502,551.9
265.9578,93.4
265.9783,457.9
265.9941,47.9
266.0233,362.5
266.0853,864.1
266.1147,22
266.1204,520.8
266.3197,153.9
266.3237,247.3
266.3864,159.7
266.4857,403.5
266.525,354.9
266.5831,302.9
266.6743,338
266.817,641.6
266.8409,521.9
266.8498,5147.3
266.8793,345.3
266.8943,4197.6
266.9307,333.5
266.9602,257
267.0135,32.6
267.1641,23.1
267.2505,387.8
267.2996,548.8
267.5551,155.2
267.6475,892.5
267.6956,194.8
267.7438,149.5
267.7765,143.5
267.8235,129.3
267.8675,312.8
267.9435,232
267.9735,84.4
267.9866,174.4
267.994,1044
268.0088,85.2
268.0294,823.6
268.1093,907.4
268.1676,399.4
268.2508,215.5
268.2562,18.7
268.5029,254.2
268.5099,349
268.5201,232.2
268.703,365.6
268.8062,328.4
268.81,764.2
268.8471,1322.7
268.8915,2296.7
268.91,197.9
268.9977,29
269.0283,579.7
269.0487,37605.2
269.1569,132.2
269.3458,565.6
269.3557,19.2
269.3824,136.6
269.5828,552.6
269.5972,120.6
269.6098,147.2
269.679,149.9
269.7022,359.9
269.7854,353.7
269.8343,473.5
269.9519,53.2
269.9702,175.6
269.994,6045.8
270.0098,157.6
270.0191,339.2
270.0248,21227.2
270.0474,25986.8
270.0524,880.4
270.1453,1041.5
270.4885,367.8
270.493,125.4
270.5337,118.4
270.5575,119.3
270.6878,136.9
270.7291,121.8
270.7683,433.1
270.7981,4531.3
270.8366,169.4
270.9042,618.5
270.9581,405.5
270.9781,27366.7
271.0068,212.9
271.0282,1465
271.0507,187.2
271.0826,379.8
271.0901,1454.5
271.2444,505.8
271.3306,523.1
271.4748,491.1
271.5284,312.1
271.5868,304
271.5982,136.6
271.6388,360.6
271.6626,350.9
271.7596,598.9
271.8059,19.5
271.814,549.6
271.9082,28.1
271.9454,292.7
271.9526,544.5
271.9653,2325
272.0054,21.8
272.0206,550.5
272.0311,360.1
272.0428,69.5
272.0813,359.1
272.0858,18.2
272.2094,341.1
272.2571,443.2
272.4113,159.7
272.4728,464.1
272.6281,788.1
272.7242,174
272.795,4770.6
272.812,367.3
272.8246,36.3
272.923,242
273.0486,1442.2
273.2041,480.9
273.4173,591.4
273.5296,803.6
273.6636,161.3
273.6981,293.2
273.7338,264.9
273.8908,198.2
273.9117,268.4
273.9625,25089.9
273.9792,204.7
274.0689,53.2
274.0924,1014.3
274.1307,20.7
274.2979,29
274.4363,25.2
274.4688,201.3
274.5432,24.7
274.7921,773.1
274.8029,79.1
274.882,410.9
274.8981,186.4
274.9062,882.6
274.9161,21.9
274.922,213
274.9823,29.5
274.9935,19.8
275.0105,322
275.0545,669
275.1891,155.5
275.1997,195.1
275.2201,475.8
275.2727,217.1
275.3108,427.8
275.4169,21.2
275.4472,271.2
275.5851,298.9
275.6715,352.2
275.6957,298.4
275.8298,270.7
275.865,272.6
275.917,370.8
275.9397,579.6
275.9624,297.5
275.9991,27.8
276.0034,145.6
276.0482,232.8
276.0584,24
276.0847,785.9
276.126,454.6
276.2499,248.2
276.2779,226.1
276.3156,189.3
276.7759,19.3
276.7955,292.8
276.8033,26.1
276.8187,80.1
276.8413,159.7
276.8573,150.6
276.8734,33
276.8785,583.8
276.9105,114.3
276.9231,11466
276.9962,234.1
277.0899,378.7
277.1059,650.9
277.1126,131.9
277.1512,18.5
277.1765,232.7
277.5258,278.3
277.5847,805.5
277.6554,382.8
277.6783,248.8
277.7139,507
277.7823,316.3
277.8816,26.6
278.019,250.6
278.0388,180.6
278.0648,19.8
278.156,221.9
278.3414,771.1
278.3921,349.6
278.4888,202.9
278.5417,17.8
278.5625,390.2
278.719,585.8
278.8471,30.2
278.8659,180.4
278.8887,72.4
278.9204,2296.4
278.9789,116.8
278.9869,514.5
279.0041,2962.5
279.0566,29797.9
279.086,491.6
279.3155,278.9
279.3382,339.7
279.458,485.2
279.47,170.8
279.6359,232
279.6994,587.4
279.7264,778.8
279.7543,170.4
279.7896,17.2
279.8153,434.9
279.8607,733.3
279.8924,123.9
279.9149,482.3
279.9294,554.1
279.9469,17.8
279.9567,255.6
279.9987,26.2
280.0117,806.6
280.0606,339.6
280.0924,1545.5
280.1087,253.7
280.2125,286.8
280.2358,324.9
280.2884,138.6
280.3526,336.7
280.4209,649.3
280.5779,256.2
280.6309,415.9
280.7165,164.4
280.7717,147.9
280.8131,58.3
280.8265,1511.4
280.8761,18.6
280.9264,600.5
280.9364,973
280.963,365.2
281.0096,1482.9
281.0146,346
281.0515,890.7
281.1044,246.1
281.217,188.6
281.2258,207.2
281.2995,29.3
281.6265,463.2
281.6737,255.8
281.6796,312.6
281.7409,180.2
281.7794,216.7
281.8128,209.9
282.0143,48.1
282.0188,303.6
282.0513,77.8
282.0598,626.3
282.0655,423
282.1666,407.4
282.1712,300.1
282.2503,660.9
282.3819,260.2
282.4931,213.5
282.7511,453.4
282.824,2403.5
282.8688,352.7
283.0206,322.2
283.0279,3085.9
283.0476,48.9
283.069,25.3
283.0753,137.4
283.1449,170.3
283.1716,148.3
283.2633,26
283.5162,238.3
283.6249,667.7
283.631,426
283.6336,951.9
283.6647,522.6
283.7358,167.6
283.7765,18.9
283.8053,464.7
283.9727,261.8
283.9887,80.7
283.9983,443.6
284.0045,76.4
284.0245,279.8
284.0531,27.3
284.0627,119.4
284.1389,24.1
284.1892,388.5
284.3005,455.4
284.607,20.9
284.6366,269.3
284.6684,301.3
284.6813,189.1
284.9579,418.8
284.9941,1918.4
285.0224,823.7
285.0678,527.7
285.0817,357.8
285.2678,525.7
285.3257,24.2
285.379,527.4
285.5487,224
285.6136,407.5
285.9681,2147
285.9811,639.2
286.0198,5875.9
286.0576,21.8
286.0961,55.4
286.2404,119.3
286.2592,489.5
286.381,192.8
286.4072,642.6
286.7205,218.9
286.7724,2008.8
286.9521,11859.9
287.0231,424.4
287.0554,21130.4
287.1518,425.6
287.2306,185.6
287.4301,18.8
287.4405,555.9
287.5047,246.8
287.5139,19
287.5599,538.5
287.6931,311.7
287.8108,194.9
287.912,19.4
287.9387,326.9
287.9494,208
288.0154,140.7
288.0348,518.1
288.0793,142.6
288.0851,23.2
288.1184,19.8
288.1557,15760.7
288.2328,24.1
288.2748,175.1
288.3338,611.8
288.3938,199.4
288.4386,120.8
288.4838,444.8
288.6611,141.5
288.7238,409.5
288.769,2929.5
288.7998,163.2
288.8499,50
288.8549,36.5
288.8599,45.4
288.872,1970.8
288.8799,3163.2
288.8959,6353.3
288.9008,6499.8
288.9135,10881.4
288.9178,12030.6
288.9225,15239.2
288.9264,13474
288.937,19513.7
288.942,17458.2
288.9561,16938.3
288.9593,17352
288.9645,16401.2
288.9701,14122.1
288.977,16916.8
288.9854,8832.4
288.9889,8557.4
288.9956,3793.7
289.0025,3106.9
289.0091,2175.3
289.0176,443.5
289.0255,408.6
289.148,24.4
289.1592,604
289.2864,727.1
289.3062,286.9
289.3422,611.1
289.44,23.2
289.5796,647.1
289.6145,312.4
289.6524,279.2
289.6983,490.9
289.7208,373.4
289.8477,265.7
289.9296,292.7
289.9365,3567
289.9765,581.4
290.0693,801.3
290.2281,128.2
290.2654,130.2
290.3348,23.2
290.385,107.2
290.3906,23.7
290.4698,780.8
290.5267,204.7
290.6972,269
290.7585,330.8
290.7661,538
290.7975,152.7
290.835,97.7
290.8898,209
290.9256,34.6
290.9578,422.6
290.9782,22.4
291.0268,1038.6
291.1227,625.9
291.1391,181.7
291.303,209.1
291.3606,637.5
291.3654,129.3
291.5686,207.9
291.6671,380.2
291.7325,307.6
291.8106,357.1
291.8897,20.3
291.912,268.5
291.9665,512.1
291.9735,727.8
292.1306,19
292.2308,205.2
292.3621,744.8
292.4017,126.5
292.5744,115.6
292.7369,277.8
292.8361,27
292.8975,2307.5
292.9238,748.7
292.94,1197.4
293.0059,541.7
293.0227,467.6
293.0298,109.8
293.0722,2519
293.0982,98875.8
293.1257,444.4
293.1789,1966.4
293.4683,598.4
293.6557,20
293.7079,16.8
293.9136,360.5
294.0707,194.5
294.0951,200
294.1015,6450.7
294.1113,744.2
294.1467,18.2
294.1703,199.1
294.2016,623.8
294.2408,231
294.2698,168.9
294.2809,19.5
294.3418,357.4
294.5535,189.4
294.6921,677.7
294.6934,680.5
294.8292,34.1
294.893,314.7
294.9419,162.9
294.9502,160
294.9621,606.4
294.9905,213.4
295.0304,617.9
295.0544,233.3
295.1031,357.1
295.1513,138.5
295.1947,26263.1
295.2316,703.1
295.3974,364.2
295.4593,21.8
295.4827,721.3
295.6027,339.7
295.6479,128.6
295.7957,521.5
295.916,21.7
295.9234,299.5
295.9425,467.1
295.9773,172.1
296.0097,2540.1
296.0219,19.9
296.0662,385.5
296.0805,129.7
296.1043,671.7
296.1621,320.1
296.1794,24.9
296.1979,1901.1
296.318,165.5
296.3543,351.5
296.7866,575.6
296.8512,282.4
296.8569,31.8
296.8831,249.2
296.9537,20.2
296.9586,170.9
296.9875,74.9
297.0679,332.9
297.1072,23.7
297.1251,147.6
297.1961,19.3
297.2012,17.9
297.3116,123.8
297.5282,19.1
297.5421,20.2
297.6619,528.8
297.7086,309.7
297.7835,130.5
297.8385,18.8
298.0076,275.1
298.0253,2307.3
298.0424,13547.7
298.1106,21
298.1565,20.5
298.3609,326.5
298.5165,356.4
298.531,305.6
298.5594,208.6
298.6259,20.8
298.6595,23.6
298.6752,228.4
298.7122,340.7
298.7208,163.1
298.8822,646.7
298.8945,190
298.9417,22.4
298.9453,483.8
298.9864,44.8
299.0231,907.8
299.0387,79.3
299.0457,354.7
299.0619,142.6
299.1394,760.6
299.2198,310
299.2382,415.8
299.3077,187.6
299.3419,253.5
299.3951,177.6
299.4334,238
299.454,226.3
299.7843,210.1
299.7964,22.6
299.9513,172.2
299.9997,22.1
300.0046,1130.5
300.0354,1182.5
300.0492,37.4
300.0754,271.3
300.1962,84.7
300.2295,193.8
300.2418,132
300.353,150.8
300.3754,314.8
300.392,450.9
300.4327,21.1
300.4567,451.7
300.5387,352
300.5643,260.9
300.6523,177.9
300.7081,816.6
300.7662,135.1
300.8193,90.5
300.8676,114.4
301.0121,100.7
301.0386,20131.2
301.1237,310.5
301.1414,256.9
301.2121,1383.4
301.2505,164.2
301.282,257.7
301.3769,678.7
301.4785,264.6
301.5182,417.6
301.5739,275.5
301.6697,24.1
301.6951,177.6
301.8197,26.3
301.8426,23.4
301.994,14250.8
302.0118,2005.2
302.0199,533
302.0352,42.7
302.0426,215.5
302.0511,244.7
302.0641,2460.8
302.1177,181.6
302.5603,384.3
302.6543,176.8
302.7443,689.8
302.7585,493.6
302.7676,248.8
302.7786,766.2
302.8205,49.2
302.8294,2364.6
302.846,121.6
302.9265,452
303.0255,297.8
303.0674,176.4
303.0748,905.7
303.4392,236.8
303.5586,288.9
303.5679,118.9
303.6377,160.8
303.6645,199.8
303.6759,196.7
303.7056,305.8
303.9158,123.4
303.97,495.4
303.9858,316.3
303.9913,1119
304.054,161.2
304.0597,57.5
304.1239,339
304.3949,353.7
304.424,149.2
304.5747,212.7
304.8138,153
304.8268,1461.8
304.8534,23.8
304.8961,956
304.9054,49.8
304.9418,20.7
304.9658,21.8
304.9756,3737.5
305.0281,130.3
305.1051,299.8
305.1503,516.1
305.17,338.1
305.1877,545.6
305.4409,19.9
305.6822,329.5
305.7738,421
305.814,27.9
305.8206,124.9
305.8337,24.2
305.869,483
305.9054,20
305.9098,120.1
305.9239,241.7
305.9834,51.6
306.0111,462.6
306.3026,153.7
306.336,456.6
306.5483,329.6
306.5578,19.6
306.6991,686
306.7392,683.7
306.7792,510.4
306.8048,326.8
306.8122,71.8
306.8434,349.7
306.8951,160.6
306.958,565.4
306.9724,1727.3
306.9768,3274.6
306.9933,22.6
307.0147,269.4
307.0527,431.5
307.136,55.3
307.1538,417.7
307.3385,413.4
307.3743,19.2
307.4283,211.8
307.6344,339.8
307.7219,412.6
307.7428,290.9
307.7883,97.9
307.8976,145.6
308.1816,234.5
308.2383,792.4
308.4038,307.3
308.4453,183.9
308.5903,302.8
308.63,19
308.7876,128.7
308.8082,352
308.8791,7129.2
308.9004,43.2
308.9225,17.4
308.9557,410.4
308.9762,175.4
309.0064,134.3
309.0378,2824.9
309.0828,3248.3
309.1512,883.3
309.2592,182.4
309.3828,159.5
309.4471,20.8
309.5238,765.7
309.5625,295.4
309.7337,176.2
309.862,346.9
309.8927,735.5
310.0873,352.5
310.1553,557.5
310.2073,17.9
310.2669,1061.4
310.3781,25.8
310.472,278.5
310.5586,170.3
310.6467,403.3
310.8031,72.2
310.8762,5038.6
310.943,20.6
311.0084,946.3
311.1475,305.6
311.1673,2168.3
311.2685,140.7
311.4053,504.8
311.6329,103.6
311.9355,291.6
311.9707,21.7
311.9833,583.8
311.9993,294.7
312.0194,268
312.024,188.3
312.0295,362.8
312.0411,4184.1
312.1711,31.9
312.2266,963.8
312.3498,353.3
312.3558,271.5
312.4874,17.2
312.5818,110.6
312.6215,195.9
312.7488,154.8
312.8025,27.9
312.8582,677.1
312.8734,1336.1
312.9898,261
313.0179,253.9
313.0323,635.4
313.0788,21.9
313.1634,318.2
313.2741,26371.7
313.3819,320.1
313.3941,138.9
313.4419,340.6
313.5912,139
313.6086,22.4
313.6483,23.3
313.8284,27.1
313.9634,17.7
313.999,529.3
314.0147,5997.5
314.0203,2238.6
314.0633,117.5
314.0667,177.9
314.0887,416.9
314.1164,457.1
314.2774,1463.9
314.3883,17.2
314.4817,516.2
314.5154,177.2
314.583,408.5
314.7252,407.8
314.798,425.1
314.8369,2658
314.8669,16.8
314.9076,149.1
314.9183,144
314.9994,3642.2
315.0043,5707.3
315.0178,953.3
315.0551,5861.9
315.066,5956.6
315.0708,10194.1
315.0802,5569942
315.0895,9251.8
315.0917,5752.6
315.0964,3449.1
315.1003,2532.5
315.1067,593
315.1199,93.8
315.1256,319.6
315.1614,4396.7
315.3239,3505
315.4065,19.6
315.4424,236.3
315.4586,567.6
315.4861,171.5
315.718,586.3
315.8033,288.6
315.8266,25.7
315.8426,505.1
315.8764,160.9
315.9063,17.9
316.0038,528.1
316.0107,137.8
316.0367,737.3
316.0486,124.5
316.0595,18.1
316.0774,29782.8
316.0835,566994.1
316.1519,580.8
316.2986,207.9
316.3851,156.3
316.5487,174.3
316.6775,261.8
316.7576,625
316.7969,229.8
316.823,710.5
316.8714,232.2
316.8892,295
316.9867,1145.9
317.084,63418.7
317.163,253.4
317.1739,142.3
317.1927,156.4
317.3582,148.3
317.5343,136.2
317.5846,342
317.5912,246.9
317.6125,460.4
317.7169,19.8
317.7991,254.5
317.822,128.4
317.928,359.9
317.9794,178.8
318.0467,22.2
318.0876,5469.9
318.108,19.2
318.1304,322.3
318.21,193.8
318.5337,687
318.6195,474.8
318.7925,1755.7
318.8037,1841.8
318.8639,46.4
318.9079,1887
318.9368,716.5
318.9594,266
318.9866,141.1
318.9926,427.7
319.1948,30353.4
319.3395,283.1
319.4181,475
319.4643,453
319.6057,453.8
319.6186,404.7
319.6298,157.8
319.8305,138.5
319.9654,1170.3
320.0749,23.3
320.0845,1218.4
320.1481,295.2
320.1982,3423.7
320.2231,279.6
320.2587,4452
320.3254,122.9
320.7413,650.7
320.7934,78.7
320.801,1359.2
320.8308,82.3
320.9049,486.9
320.9109,325.6
320.9281,221.5
320.9493,1816.1
320.976,688.1
320.9958,455.8
321.0703,180.8
321.1646,196.8
321.2104,49446
321.2622,253.7
321.5006,183
321.5651,129.8
321.6546,214.1
321.8163,125.1
321.8368,22.2
321.997,39
322.0087,150.2
322.0437,325.3
322.1264,263.9
322.1517,515.2
322.2136,5551.8
322.4357,19.9
322.5409,358.5
322.5693,18.3
322.7986,112.6
322.8483,443.1
322.8723,475.5
322.932,1357.3
323.0067,195.4
323.0204,10753.4
323.0766,484.9
323.2101,24.3
323.2262,5596
323.2366,213
323.3078,320.1
323.3873,18.4
323.5196,20.2
323.5242,265.2
323.5793,20.2
323.6868,300.1
323.698,527.9
323.7794,498.6
323.8537,639.1
324.0018,11084.9
324.0314,385.8
324.077,260.1
324.1402,237.1
324.1594,175.3
324.3477,18.4
324.6887,2038
324.6972,5184.8
324.7001,4848.2
324.7189,599.9
324.809,579.4
324.853,4463.4
324.8821,332.3
324.9199,1130.7
324.9287,526.4
324.9616,19.8
325.0035,152.1
325.0564,1351.8
325.1778,855.6
325.2119,1635.6
325.2983,689.2
325.3208,875.3
325.4941,20.3
325.4996,126.4
325.8211,21.4
325.9008,128.2
325.9288,429.2
326.033,226.6
326.2847,267.3
326.4687,456.9
326.5072,947.9
326.6207,193.7
326.6352,165.5
326.668,387.6
326.7714,774.1
326.792,888.2
326.8023,531.3
326.8501,4851.1
326.8723,471.8
326.8828,18.7
326.8929,1164.6
326.9028,278.2
326.972,22.6
326.9836,976.9
327.0156,4901.2
327.0517,2109.7
327.0784,26.8
327.087,182.7
327.1053,418.3
327.1288,166.4
327.2275,10807.3
327.3542,19.1
327.3611,186.1
327.6119,506.4
327.6597,158.1
327.6777,223.3
327.8198,814.2
327.8726,453.5
328.0152,1515.9
328.0302,139.9
328.2319,943.8
328.2497,155.4
328.4766,16.6
328.5011,20.1
328.5137,854.4
328.5184,1021.9
328.6249,178
328.7038,200.8
328.7205,347.6
328.8144,179.9
328.8463,435
328.8558,437.6
328.9228,419.6
328.9833,326.4
328.99,349.8
329.0043,264.3
329.0962,325.2
329.2863,469.8
329.3755,260
329.4127,377.6
329.5311,716.4
329.5424,192.2
329.5864,316.2
329.6539,336.1
329.6982,181.3
329.8076,188.9
329.8289,127.7
329.8933,332.4
330.0074,937
330.0175,132.9
330.0462,25.3
330.059,113.1
330.1158,328.4
330.1251,17.7
330.3531,242.2
330.4528,116.6
330.5729,131
330.6331,198.2
330.7127,619.2
330.7541,391.4
330.792,21.3
330.9037,323.5
330.9316,238.6
330.9787,835
331.0189,1265.1
331.0453,53444.6
331.0541,558191.1
331.1216,204.7
331.2832,276.5
331.3164,123.8
331.6133,460.3
331.8637,492.9
331.9208,144.5
331.9472,607.9
331.9997,528.5
332.0479,1791.7
332.0574,50607.9
332.1831,244
332.2932,18.4
332.379,17.2
332.3925,192.3
332.4095,323.8
332.4443,469.6
332.6818,146.9
332.7041,20.7
332.8087,142.9
332.9601,673.1
332.9745,732.3
332.9888,167.3
333.036,137.2
333.0522,32554.1
333.0578,4894.2
333.1139,20.3
333.1217,21.2
333.1332,480.3
333.1516,1108.9
333.2867,840.4
333.3793,18.1
333.4497,209.1
333.5434,261.3
333.7143,267.3
333.7254,98.6
333.7789,106.7
333.8024,130.4
333.8172,18
333.9939,127.4
334.0555,1695.9
334.0904,30
334.4328,21.3
334.4622,276.5
334.4874,174.6
334.5327,18.9
334.5835,89.5
334.8374,526.7
334.8729,143.2
334.9859,342.2
335.0526,132.4
335.0704,294.3
335.0992,367.8
335.1673,5685.3
335.383,18.3
335.4116,111.6
335.5827,174.3
335.5889,172.9
335.6944,193.5
335.727,547.8
335.7769,453.7
335.7892,17.2
335.8323,77.8
335.9267,597.5
335.9324,126
335.9996,341.3
336.0129,23.2
336.0224,229.2
336.0753,125
336.1046,234.3
336.1704,832.7
336.2012,105.2
336.4838,22.3
336.8041,24.3
336.8143,327.6
336.909,181.3
336.9534,198.1
337.0163,22.2
337.0362,13289.1
337.0497,5767.1
337.0621,413566.7
337.1829,5334.9
337.2596,590
337.2745,2449.8
337.8649,376
337.8863,355.4
337.9474,661.9
338.0654,38772.7
338.1863,737.2
338.3125,229.9
338.4198,142.3
338.7083,400.5
338.7856,538.1
338.8032,28.1
339.0256,247.2
339.0383,559.2
339.0474,418.7
339.0659,2448.4
339.153,130.8
339.1981,1481.1
339.2528,416.9
339.29,3619.4
339.3938,163.1
339.4064,334.1
339.4226,146.8
339.4573,20
339.8325,168
339.853,123.8
339.9668,843.5
339.9757,1068.6
340.014,251.8
340.0307,414.4
340.0363,802.2
340.1303,24.4
340.2007,23.2
340.2165,27.6
340.2379,511.3
340.2771,220.6
340.2966,284.4
340.2987,270
340.3756,18.2
340.4406,305.4
340.5011,843.9
340.5272,318.8
340.6176,131.7
340.7829,1050.5
340.7966,679
340.8026,22.6
340.8281,789.8
340.9277,555.9
341.0046,138.5
341.0177,651.2
341.1271,326.3
341.2785,252.7
341.3054,3325.6
341.3432,20.1
341.433,106.9
341.4486,358.2
341.4658,738.7
341.518,196.7
341.5571,101.8
341.8617,280.5
341.9391,444.5
342.0007,130.6
342.0152,2516.8
342.0521,1214.5
342.0663,441
342.126,169.8
342.1443,27.3
342.3343,240.8
342.824,350.9
342.8923,342.1
342.9896,820.1
343.015,20.6
343.1548,476.4
343.1948,26293.6
343.2788,19.3
343.3625,201.6
343.3729,223.3
343.407,264.2
343.4784,519.3
343.5927,177.7
343.6057,131.5
343.9885,2248.3
344.0693,239.7
344.0912,17.8
344.1983,1659.3
344.3066,338.5
344.3335,308.9
344.9804,269.7
345.0003,149.5
345.028,163.6
345.0631,810
345.0805,144.3
345.2104,3515.4
345.2778,21.2
345.6082,356.5
345.8178,22.3
345.8904,243.7
345.9838,76497.8
346.0256,643
346.0376,474.6
346.3408,566
346.4644,19.5
346.6284,251.4
346.6906,377.5
346.7538,145.4
346.9503,236.7
346.9874,3320.9
347.0066,501.3
347.0175,1090.4
347.201,252.3
347.257,24.3
347.3608,233.1
347.494,132.9
347.6552,289.2
347.7094,155.4
347.8893,218.4
348.0623,475
348.3619,152.4
348.4229,247.8
348.4968,549.4
348.75,147
348.841,17.8
348.9084,387.7
348.9129,294.8
349.0058,18.8
349.0181,120.8
349.0321,22.4
349.1379,200.2
349.3541,238
349.3774,200.5
349.4167,187.9
349.791,185.5
349.8085,453.6
350.0077,137.5
350.2062,339.8
350.2847,210.4
350.4684,536.7
350.5223,443
350.5908,19.5
350.6045,200.4
350.676,17.3
350.8714,373.1
350.8983,411.5
350.9551,19.4
351.1382,267.5
351.3375,24.6
351.3437,361.9
351.3497,222.8
351.4769,168.9
351.4937,219.8
351.5698,156.4
351.712,275.8
351.7816,105.4
351.8884,111.7
352.2276,163.7
352.2439,120.5
352.2953,621.3
352.3126,291.8
352.4894,179
352.4929,166.5
352.4953,170.4
352.6892,21.6
352.8982,979.1
352.9183,617.5
352.9916,452.9
353.0272,100171.6
353.0361,150197.5
353.0816,279.9
353.3369,364.1
353.3592,22.9
353.4808,18.6
353.7103,17.7
353.7321,19.6
353.9603,132.7
354.0303,5451.3
354.0394,12631.8
354.2384,333.4
354.2799,216.9
354.3595,181.3
354.3672,643.1
354.3897,118.3
354.5703,527.9
354.7677,18.9
354.8612,20.3
354.9046,17.6
355.0031,292.3
355.0118,602
355.0344,6221.7
355.0702,1977.3
355.1336,519.2
355.2164,542
355.3805,20.3
355.6205,287.2
355.6815,163.7
355.7534,124.1
355.8777,329.8
355.9238,707.4
355.9386,18.3
356.015,43.4
356.0469,390.6
356.0678,1464.6
356.1968,291.6
356.2235,23
356.323,296.8
356.3864,182
356.5483,304.5
356.8397,295.4
356.865,701.8
356.8855,460.2
357.0088,292.6
357.0426,540.4
357.067,178.2
357.135,20
357.1517,285.9
357.1976,267.4
357.685,421.9
357.7016,273.5
357.705,384.2
357.7128,565.4
357.7451,262.7
357.7534,20.9
357.9496,545.6
357.9776,1150.5
358.0408,326.7
358.0775,326.6
358.1292,532.5
358.3929,188.4
358.7259,396.1
358.7556,18.5
359.0077,196.5
359.0239,325.6
359.0316,7524.7
359.0441,313462.4
359.1671,4692.8
359.245,19.9
359.2687,493.8
359.2747,331
359.3321,354.7
359.3487,731
359.3615,143.4
359.3803,342.7
359.4016,650.7
359.4115,387.9
359.4202,337.4
359.4273,241.2
359.4417,585.2
359.4502,169.2
359.4659,626.5
359.4799,240.7
359.4893,402
359.4967,585.5
359.5066,20.5
359.572,235.8
359.7866,125.8
359.9624,312.2
360.0097,20.1
360.0475,28746.9
360.056,26
360.1321,182.9
360.1569,303
360.1709,328.9
360.2149,130.4
360.3091,120.9
360.3238,121.4
360.344,1064.1
360.5938,402
360.855,189.4
361.0139,337
361.0202,5770.1
361.0477,189.7
361.1828,868.8
361.1901,318.9
361.2005,243.1
361.2742,2727
361.434,380.8
361.5022,414.3
361.5612,20.4
361.6113,896.7
361.7306,649.1
361.7953,21.9
361.8989,19.7
361.9208,820.7
361.9577,22344.9
361.9899,201.6
362.0126,385.4
362.1899,353.9
362.253,18
362.2775,266.1
362.4756,589.6
362.507,319.9
362.645,173.2
362.8197,211.2
362.9266,1141.8
362.9342,402
363.1663,798.3
363.2274,20.8
363.3466,242.5
363.362,352.1
363.4343,294.2
363.4692,304.2
363.4786,167.3
363.6305,268.7
363.6486,165.6
363.7905,103.5
363.819,19.7
363.8487,266.9
363.8581,526.1
363.9198,180.6
363.9554,147.6
363.9973,1806.4
364.1879,666.8
364.1999,17.9
364.4317,377.8
364.5409,371.9
364.733,169.8
364.957,958.1
365.1053,1674.1
365.2119,19
365.3492,599.3
365.4568,319.5
365.5586,17.8
365.8305,202.8
365.9166,380
365.9854,55.4
366.0027,623.7
366.0727,2775.5
366.1873,710.2
366.3394,263.2
366.3897,357.8
366.4025,778.2
366.7174,319.8
366.8141,21.6
366.8258,288.5
366.9135,352
366.9386,224.5
367.0788,24.3
367.1212,2509.2
367.1951,3241.8
367.2731,124.9
367.8126,21.8
367.9916,1179.7
368.0026,289.1
368.2897,329.2
368.4248,188.6
368.4436,202.4
368.6913,316.8
368.8641,144.6
368.872,827.3
368.9925,3499.9
369.0007,8109.4
369.0102,2311.6
369.0731,518.8
369.1123,124.6
369.2356,480.1
369.3065,103.7
369.3518,376.7
369.3883,149
369.4042,18.2
369.4765,176.5
369.7997,302
369.8222,532.1
369.8787,843
369.9058,110
370.0153,551.9
370.0474,18.4
370.1025,411.8
370.1858,106.6
370.1935,411.4
370.2356,384.9
370.2607,223
370.3066,152.1
370.3845,96.2
370.4061,199.9
370.5355,239.3
370.8403,134
370.9999,2035.1
371.0418,2910.8
371.0625,292.2
371.1014,97.7
371.1449,16.3
371.1733,668.9
371.2004,185.1
371.2652,390.6
371.5071,163.4
371.6749,132.8
371.6923,174.9
371.7069,283
371.7683,468
371.8165,20.4
371.8541,677.9
372.0661,708.8
372.1675,158.5
372.1959,615.8
372.2675,27.5
372.3668,184.2
372.6459,474
372.7389,1159.3
372.7859,167.5
372.8156,25.1
372.8841,376.1
372.996,133.8
373.0308,276.2
373.3823,19.2
373.6015,161.8
373.635,176.6
373.7403,627.3
373.8116,85
373.8405,20.6
373.8704,423.1
373.9325,22.8
373.9495,278.6
374.0978,112.8
374.2306,303.1
374.2469,334.3
374.3027,250.5
374.3593,576.2
374.3829,627.4
374.6814,990.6
374.7355,1396
374.8093,275.5
374.8581,279.6
374.8605,286
374.8646,268.9
374.984,484.7
375.0092,122390.8
375.018,77774.5
375.0746,18.2
375.3548,368.7
375.4333,169
375.4603,22.9
375.7975,206.5
375.9613,154.2
376.0124,7688
376.0213,4509.3
376.216,252.5
376.2365,168.2
376.2654,179.4
376.2929,1892
376.3937,461.5
376.4044,139.3
376.5219,263.3
376.5868,394
376.7938,387.1
376.8355,70.7
376.8446,126.6
376.9946,906
377.0039,216.9
377.0167,2223.9
377.0715,129.8
377.3897,671.4
377.4783,136.9
377.5062,144.5
377.9317,1086.8
378.1727,398.2
378.3342,122.2
378.4742,236
378.6873,22.2
378.6938,167.3
378.8366,377
378.9012,1149.4
379.2196,133.3
379.2356,222.1
379.3593,314.8
379.3758,334.5
379.8161,19.1
379.9279,718.3
380.1026,324.3
380.5216,149.2
380.6765,21.7
380.7085,375.3
380.8302,198.5
380.9819,691.3
381.0136,12873.5
381.0261,208323
381.0385,778.3
381.0793,212
381.356,410
381.8971,135.4
381.9465,101.3
382.0294,17915.3
382.1263,19.4
382.3514,560.9
382.3919,219.9
382.4995,609.5
382.698,19
382.7668,1695.6
382.8297,181.5
383.0092,202.3
383.1165,313036.3
383.2764,22.5
383.4336,246.9
383.4778,482.6
383.5595,249.8
383.6566,19.3
383.697,18.2
383.7388,229.5
383.8125,17.8
383.9218,271.9
383.9654,879.5
384.1197,33097.6
384.1634,276.1
384.4629,214.3
384.6661,195.4
384.7644,504.3
384.8934,773.4
385.0003,173.5
385.018,174.2
385.036,643
385.1992,235.6
385.274,1059.2
385.3172,237.9
385.7649,319.5
385.8583,159.6
385.9403,253
385.9791,13502.7
386.276,290.9
386.322,241.4
386.5606,19.2
386.6039,181.1
386.6149,100.6
386.6644,314.9
386.9838,229.9
387.0032,1443.7
387.0131,144.5
387.0762,119.2
387.2443,725.2
387.3332,714.7
387.3545,255.7
387.5204,19.6
387.6461,128.5
387.8743,433.8
387.978,1705.7
388.0108,248.8
388.1885,18.6
388.4414,323.3
388.4758,385.6
388.5001,203.9
388.5407,204
388.7304,159.7
388.8085,175.2
389.0722,196
389.0839,517.8
389.2129,332.2
389.2389,165.3
389.3101,316.8
389.3217,323.7
389.3708,181.2
389.5707,199.8
389.6569,336.2
389.7612,291.9
389.802,19.9
389.8055,19
389.8794,140.3
389.9736,75089.8
389.9841,311
389.9947,28.4
390.0556,22.1
390.1017,191.4
390.38,125.1
390.4504,152.3
390.4651,263.9
390.5035,463.5
390.5316,572.2
390.6147,160.9
390.7994,1239.6
390.9416,1065.1
390.9495,22.9
390.9623,296.3
390.9743,12699.6
390.9826,14737.5
390.9919,7100.2
391.0515,404.4
391.4934,279.5
391.5135,127.5
391.7996,321.9
391.8929,21.2
391.953,310.5
391.9782,633.6
391.9854,365.6
392.004,22.9
392.0445,335.8
392.1947,245.9
392.2608,25.6
392.5845,353.9
392.7061,357.1
392.7288,163
392.7471,319.8
392.7957,2079.2
392.8896,149.7
392.9328,292.9
392.957,660.8
392.969,233.2
392.9817,3246
393.0991,23.3
393.2453,123.7
393.2979,25.8
393.3949,186.5
393.697,236.1
393.7747,415.8
394.514,324.6
394.5384,224.9
394.7803,253.5
394.7926,954.4
394.8734,151.3
394.8883,447.1
394.9517,19.2
394.9772,651.2
395.2473,175.8
395.2712,104.1
395.3437,523.5
395.6105,153.5
396.0899,281
396.1406,131.8
396.1786,179.4
396.2042,183.9
396.2226,131.3
396.3966,272.6
396.404,177.4
396.55,150
396.6999,214.2
396.7448,1243.4
396.8211,267.4
396.8936,251.4
396.9912,175107.6
397,54990.5
397.0205,484.5
397.0902,796.8
397.1017,261.7
397.3091,557.4
397.4409,373.5
397.6217,464.6
397.8215,17.5
397.9945,14966.4
398.0033,2792.1
398.2044,359
398.22,28.3
398.2418,4181.4
398.545,226.9
398.5556,262.2
398.7176,618.7
398.7411,2262.6
398.7619,611.9
398.8684,260.8
398.9027,514.1
398.998,1015.2
399.1039,17.8
399.1881,421.5
399.2093,162.9
399.237,327.3
399.4285,19.2
399.6892,281.4
399.943,368.5
399.9991,20.8
400.1393,386.8
400.2832,161.8
400.3163,500.6
400.342,464.7
400.4281,153.7
400.4421,505.8
400.5366,23.5
400.8274,667.4
400.9841,1592.6
400.9918,133.5
401.0766,561.5
401.1058,140.1
401.2226,527.7
401.3597,274
401.3753,387.2
401.4407,371
401.4634,25.1
401.6168,166.1
401.623,187.5
401.9017,175.3
401.9532,2279
402.0587,249.8
402.0756,602.7
402.2918,127.6
402.4468,522.8
402.5854,321.9
402.5929,549.4
402.6985,241.5
402.8254,380.6
403.008,247776.7
403.2431,247.1
403.2885,514.7
403.3577,369.6
403.4483,100
403.4973,137.5
403.7454,181.3
403.8158,547.2
403.8681,218.2
403.9248,281.1
403.9424,5326.5
403.9515,323.6
403.999,431.5
404.0113,19532.1
404.4174,660.6
404.6277,217.1
404.7942,27.7
404.9055,242
404.9457,294.2
404.9587,446.3
405.0369,494.2
405.0661,438.4
405.321,22.4
405.3252,21.4
405.3286,20.7
405.3838,421
405.5252,404.8
405.6103,173.2
405.9475,45094.3
406.1097,19.8
406.1631,178.7
406.2215,164.2
406.299,26.1
406.3295,776.5
406.3769,653.6
406.4441,24.6
406.5208,625.8
406.68,288.6
406.7292,19.4
406.7725,793.8
406.9509,1808
407.1818,192.7
407.3328,125.7
407.4326,260.7
407.4535,308.3
407.5924,743.2
407.7727,19.9
407.8177,594.2
407.8384,409.2
407.9215,21.2
407.9457,498.7
408.0894,245
408.5078,184.3
408.589,18.5
408.6096,347.4
408.6333,286.7
408.77,2704.7
408.8173,60.3
408.881,267.6
408.9098,195.8
408.9847,1343.2
409.0475,146.9
409.1191,321
409.1607,160.8
409.3097,647.7
409.3265,25.6
409.5444,308.6
409.6974,133.5
409.9741,210.5
410.0028,538.3
410.1133,17.8
410.2332,241
410.2681,18.4
410.2856,780.8
410.4352,470.7
410.4469,434.8
410.459,162.7
410.512,22.7
410.671,160.2
410.7352,328.5
410.7737,574.7
410.8164,18
410.8569,1154.4
411.0051,20.3
411.1154,18.3
411.2044,550.4
411.2414,318.2
411.3146,381.3
411.4973,736.9
411.5134,239.3
411.9048,141.9
411.9457,22.2
411.9584,687.2
411.9677,266.2
412.0459,339.4
412.2491,165.4
412.2909,25.4
412.3213,4000.9
412.4442,187.8
412.6113,346.3
412.7186,402.5
412.8529,793.8
412.9199,354.9
412.9376,28.2
412.9641,48873.1
412.9739,6407.9
413.0591,290.5
413.1101,211
413.2665,3111.5
413.3247,374.6
413.3793,353.4
413.4334,394.7
413.6461,371.3
413.9295,541.1
413.9398,362
413.9666,269.1
414.0359,389.2
414.194,782.8
414.2702,242.8
414.4562,300.9
414.5329,126.6
414.5454,154.8
414.619,127.2
414.7703,230.1
414.9639,2212.8
415.0372,230.8
415.208,183.7
415.2651,194.2
415.4625,329.8
415.5562,179.3
415.6243,19.1
415.9775,49
416.0173,203.2
416.0365,30.9
416.1355,17804.5
416.2144,28204.9
416.4935,421.3
416.5621,396
416.6876,718.8
416.815,22
416.9048,330.5
416.9148,243
416.9576,299.1
416.9834,17.9
417.1356,778
417.2176,1510.9
417.3187,182.4
417.3555,328.6
417.3765,566.8
417.6177,163.3
417.6904,197.7
417.7485,37.1
417.9277,174.8
417.9765,176
418.0345,147.4
418.2828,799.9
418.3412,188.6
418.4339,19.9
418.5085,184.7
418.556,482.6
418.799,1356.7
418.8093,165.6
418.8818,187.9
418.982,77962.8
418.9925,20.2
419.0976,261
419.136,20.6
419.1496,143.7
419.2558,2739
419.292,393
419.6518,835.7
419.6922,483.2
419.7074,185.8
419.7563,690.8
419.8362,283.4
419.9163,400.3
419.9559,22.7
419.9852,2985.5
420.0948,26.5
420.1509,354.7
420.1805,180.1
420.7509,277.8
420.8526,22.9
420.8853,651.4
420.9577,733.5
420.9802,1955.5
421.0255,375.9
421.0484,470.1
421.1538,381.2
421.406,338.8
421.609,316
421.7935,199.8
421.8336,306.5
421.8493,533
421.9214,12948.4
422.132,594.4
422.4826,342.5
422.7517,353
422.7648,120.8
422.931,21.8
422.9455,23.4
423.2891,120.1
423.3828,496.2
423.5607,309.5
423.6793,203.8
423.7663,170.7
423.7813,292.2
423.794,28.4
423.857,170.9
423.9199,757.3
424.0429,570.1
424.0764,28.1
424.2083,471.1
424.2478,235
424.4974,21.5
424.9536,387.1
425.5561,802.1
425.6258,263.8
425.8138,22.6
425.8275,28.9
425.8854,169.8
426.055,217.9
426.1397,221.3
426.1661,17.8
426.3376,551.1
426.3539,393.1
426.3832,197.3
426.9416,181
427.0889,495.8
427.9349,476.6
428.0597,479.9
428.0626,494.1
428.167,446.6
428.6442,155.4
428.6628,552.4
428.6811,20.4
428.7911,567
428.8087,298.3
428.9375,9783.9
428.9928,383.8
429.0382,786.9
429.0628,39.8
429.0706,140.9
429.0889,1421
429.1038,638.9
429.1113,660.3
429.2379,130
429.7539,192.1
429.8836,461.6
429.9397,212
430.0881,234.5
430.138,153.5
430.2128,577.8
430.6961,384.4
430.9131,1261.6
430.9382,408
431.091,518.2
431.2174,524.6
431.3392,21
431.3516,503
431.4177,276.8
431.6052,274.3
431.6449,169.3
431.6937,193.4
431.8457,146.9
431.9035,387.8
431.9344,129.2
431.95,113.8
432.0372,18
432.2262,465.9
432.5876,241.4
432.6937,484.4
432.7601,704.1
432.975,403.3
433.1269,136.4
433.2886,27.1
433.4596,18.8
433.9463,414.7
434.5217,175.8
434.6551,288
434.6708,743.7
434.9561,11166.3
435.0552,124.5
435.2932,481.4
435.3836,246.3
435.7957,634.2
435.8485,25.1
435.8852,280.7
435.9249,226.4
436.0138,276
436.0885,372.2
436.453,146.6
436.4771,756.3
436.6533,213.9
436.7642,276.4
436.8158,45.3
436.9534,380
437.1667,194.7
437.5428,340.4
437.8499,737.7
437.8763,23
437.9559,164.4
438.1424,185.9
438.224,368.6
438.2417,331.9
438.3118,664.3
438.3837,365.5
438.4939,222
438.5673,269.9
438.9314,406.1
438.9717,1570.1
438.9846,5029.7
439.3437,406
439.373,18.8
439.6212,242
439.763,758.7
439.9071,24.3
440.1006,24.5
440.1348,146.3
440.2984,165.4
440.5087,613.4
440.5265,131.8
440.9582,218.4
440.9989,139.9
441.2179,237.7
441.2975,198.8
441.5189,24.8
441.5431,310.5
441.5821,602.1
441.6389,21.8
441.677,528
441.8043,19.5
442.0381,324
442.0815,21.3
442.1777,321.2
442.2128,358.8
442.239,546.9
442.5405,252.1
442.7296,650.4
442.8294,163
442.8447,562.9
442.9142,19
443.0802,713.3
443.1148,25.9
443.2535,976.5
443.263,205.9
443.2987,136.6
443.5311,17.1
443.5584,148.9
443.5681,24.4
443.6215,228.6
443.6365,147.1
443.887,124.1
443.9728,53.4
444.1275,207.5
444.1595,19.2
444.5369,20.4
444.685,164.8
444.8179,267.2
445.2249,252.8
445.2687,381.5
445.343,21.1
445.8726,129.5
445.935,312.4
446.4037,392.6
446.6216,334.8
446.6709,329.5
446.7152,472.9
446.8366,24.7
446.8889,680.9
446.9938,787.2
447.0205,294.3
447.0496,516.4
447.1921,754.6
447.2348,327
447.2882,41
447.5049,304.2
447.8324,18.9
447.9322,11162.4
448.1054,256.1
448.1297,192.2
448.192,483
448.5383,260
448.5789,216.1
448.5955,169.7
448.6472,161.9
448.6692,979
448.7503,20.1
448.9325,2956.8
449.0388,377.1
449.0877,403.7
449.13,366.4
449.1543,2521.3
449.2413,138.2
449.7101,206.2
449.8285,26.2
449.9303,1750.5
449.9797,173.9
450.1576,546.7
450.2178,347.4
450.2598,126.8
450.2956,21.1
450.3786,251.6
450.5141,274.8
450.7081,23.8
450.7543,475.6
450.7695,211.8
450.8089,22
450.8371,98.8
450.8864,18.9
450.8988,592.9
450.9284,443.9
451.15,220.5
451.4602,189.8
451.5521,140.6
451.5747,196.2
451.8042,325.2
451.8391,543
452.0562,202.8
452.2999,20.2
452.3376,174
452.6642,276.8
452.6684,290.9
452.7259,22
452.7955,864.7
452.8407,229.3
452.9293,491.6
453.1741,849.9
453.2961,418.7
453.3966,134.7
453.7149,24
453.8113,126.8
453.9674,150.6
454.0697,23.3
454.6816,170.2
454.7917,103.1
454.8823,925.6
454.9181,297.7
454.936,37.4
454.9497,42080.1
455.053,20
455.4454,188.8
455.5737,284.8
455.9058,165.8
455.9531,652.1
456.0035,209.2
456.1514,247.5
456.2637,768.9
456.3572,17.4
456.3963,166
456.497,170.5
456.5874,484.7
456.7001,488.9
456.8071,305.8
456.9468,9213.1
457.0632,510.5
457.0974,23.8
457.2328,3188.3
457.6271,158.8
457.7984,161.7
457.8366,529.5
457.9654,31.6
458.183,555.5
458.698,581.3
458.9619,2465.5
459.1569,18.2
459.2486,272005.8
459.5407,371.7
459.9452,85
460.1452,160.1
460.252,53282.7
460.3669,401.8
460.673,309.7
460.9667,74907.8
461.0656,193
461.1308,239.9
461.2162,550
461.2538,1927.8
461.7995,199.7
461.8704,809.9
461.901,961.7
461.915,495.7
461.9704,3747.4
462.0488,348.6
462.2113,448.7
462.2346,371.7
462.5123,658.2
462.7433,195.1
462.7598,183.3
462.8243,18.9
462.9637,17613.5
463.0786,618.5
463.0879,371.9
463.1719,20.4
463.202,875.3
463.518,296.6
463.7501,259.6
463.8069,20.8
463.8497,112.6
463.9059,5002.8
464.0524,381
464.1144,264.1
464.2171,218.6
464.2769,341.9
464.544,571.5
464.5883,649.6
464.7226,22
464.9784,5705.2
465.0642,269.2
465.0869,145.8
465.1504,143.9
465.2175,489.1
465.3896,19.3
465.4433,206.5
465.5386,398.2
465.8028,129.1
465.8743,228.8
465.8796,299.3
465.9029,361
466.198,710
466.4206,295.4
466.6338,347.6
466.645,153.6
466.7289,321
467.3029,19.5
467.5346,552.3
467.8309,21.1
467.8366,20.7
467.9155,473.1
468.0399,453.4
468.1804,367.3
468.3148,230.6
468.5828,238
468.7297,22.4
468.7574,450.6
468.8793,438.3
469.1462,602.1
469.2548,579.5
469.3128,889
469.3654,317.1
469.5023,21.3
469.5337,209.2
469.7118,20.6
469.7782,268.7
470.2207,782.7
470.3034,381.8
470.3214,745.5
470.4529,376.5
470.8359,190.6
470.8617,920.8
470.9238,15973.8
470.9903,23
471.0013,268.1
471.1728,901
471.6793,224.8
471.7733,21.4
471.7866,21.5
472.0486,27
472.1314,18.8
472.2187,24.2
472.2529,274
472.3048,955.2
472.5029,278.5
472.5722,227.2
472.607,169.5
472.8677,373.4
472.9214,2755
473.0121,845.7
473.0367,986.2
473.0662,510
473.2064,380.1
473.2645,763.2
473.3927,474.2
473.4846,182.9
474.0413,180.3
474.086,25.4
474.3373,216.7
474.462,260.4
474.9765,413.5
475.2225,10388
475.2417,113.8
475.3158,134.6
475.4272,730.5
476.227,469.9
476.3272,117.2
476.5021,375
476.6123,482.8
476.7362,803
476.7672,414.5
476.9201,18.3
476.9406,40800.1
477.2489,358.5
477.5035,436.5
477.7081,514
477.7625,135.3
477.8292,109.4
477.8447,176.6
477.8546,190.8
477.8599,172.7
477.9237,17.9
477.9445,1336.9
478.3295,63103.3
478.387,576.2
478.4706,190.2
478.5528,191.8
478.8857,417.6
478.9378,12424.7
478.9936,396.4
479.0762,262.6
479.0963,82.1
479.1696,549.8
479.333,11930.8
479.3744,134.6
479.7805,18.6
479.8765,636.8
479.9427,296.7
479.9905,180.6
480.1208,685.4
480.3388,305.3
480.4446,183.5
480.7062,339.5
480.766,30.5
480.9522,1249.5
481.0915,1960.5
481.2967,156.8
481.4056,225.3
481.426,617
481.5723,172.1
481.7221,404.6
482.0794,424.3
482.0951,396.6
482.219,205.4
482.4406,871.3
482.5091,262.2
482.6654,303.3
482.9724,289.4
483.0873,68.1
483.2045,964.8
483.2249,294.7
483.2486,48690.9
483.3059,149
483.3851,291.7
483.7307,572.1
483.827,123.7
484.2275,476.6
484.252,11223
484.3577,322.5
484.4812,246.4
485.1966,574.8
485.2425,343.9
485.2642,56466.9
485.447,179.8
485.4819,442.6
485.5116,141.6
485.6664,21.9
485.6759,290.7
485.7147,386.8
485.9236,426.1
485.9965,22.3
486.0119,163.4
486.2673,11438
486.3418,21.5
486.4607,736.8
486.6357,361.6
486.788,189.3
486.8983,1071.6
487.0258,20.4
487.0581,227.6
487.1621,304.8
487.2798,94180.4
487.464,20
487.5229,20.4
487.7279,237.6
487.7448,466
487.8044,716.7
488.0354,362
488.2489,773.2
488.2831,17723.1
488.4615,108.4
488.6554,318.4
488.8282,160.2
488.8968,422.5
488.9824,187.6
489.0558,29
489.1313,135.5
489.1637,618.3
489.1738,722
489.2124,225.5
489.2238,131.7
489.2334,809.3
489.3555,536.8
490.2221,315.3
490.2439,191.2
490.29,974.4
490.3201,171.6
490.3678,187.8
491.2897,297.2
491.76,24.3
491.8688,138.4
492.1769,227.8
492.2445,470.9
492.2639,814.5
492.28,21.9
492.3432,135.4
492.6389,410.7
492.9148,4247.7
493.0577,22.7
493.0683,482.9
493.3172,411.3
493.7009,388.9
493.7803,200.5
493.958,665.3
494.0959,18.2
494.2325,1249
494.2527,432.5
494.2861,747.9
494.7304,20.6
494.7658,123.2
494.8752,19.9
494.9117,1601.7
494.9665,980.9
495.1546,621.8
495.3267,261.8
495.3356,182.2
495.5961,732.9
495.9942,671.8
496.0421,18.7
496.2273,146.7
496.2593,19.8
496.3401,252844
496.4701,121.5
496.5307,814.9
496.5581,885
496.7225,637
496.9137,105.2
497.0511,17.6
497.1339,23.1
497.3434,65932.1
497.5012,627.7
497.9124,137.3
498.1204,335.4
498.3467,5291.3
498.4442,318.6
498.6488,129.2
498.6841,401.7
498.7003,299
498.8316,211.6
498.929,433.8
498.9381,285.8
499.2224,1373.9
499.3015,539.6
499.4982,316.7
499.7577,294.5
499.7689,338.7
500.0761,204.4
500.1271,507.3
500.288,479.3
500.3802,332.5
500.5287,199.9
500.6179,128.5
500.7312,140.8
500.9026,131.5
500.9598,157.2
500.9852,776.3
501.2374,1976.7
501.3159,131.9
501.3293,466.6
501.3675,334.7
501.7847,126.4
501.9223,654.1
502.1042,19.9
502.1138,397.9
502.1446,259.1
502.3294,12924
502.5299,509.9
502.6261,143
502.6796,393.3
502.7438,186.1
502.9878,2217.1
503.0474,313.2
503.1075,639.5
503.1482,232
503.2538,2572.2
503.3323,2186.4
503.4718,726.5
503.6892,130.5
503.9005,152.2
503.9711,620.8
504.0741,20.3
504.0885,211.9
504.1155,639.1
504.2344,409.5
504.3072,1225.3
504.3448,10491
504.6078,22.8
504.6289,569.7
504.6783,490.1
504.7623,103.6
504.8602,173.7
504.8634,177
505.1039,39
505.2324,930.8
505.3471,1239.4
505.4852,290.4
505.506,19.9
505.5169,717.7
505.6955,478.4
505.8909,4288.9
506.0201,276.2
506.0901,978.6
506.3267,453.2
506.3606,15996.8
506.4992,318.2
506.6231,330.6
506.7898,747.5
506.8914,2789
507.1802,192.7
507.1889,19.1
507.2015,267.6
507.2485,31251.4
507.2889,401
507.3639,2516.9
507.5373,1202.9
507.5469,21.2
507.6045,389.6
507.7337,20
507.871,877.5
507.8872,1451.2
507.9299,306.6
508.2059,329.3
508.2519,7402.6
508.3605,278.7
508.5116,389.4
508.8457,441.3
508.8888,1775.8
508.9041,387.5
509.0045,4679.8
509.0821,110.4
509.1572,408.3
509.1667,346.1
509.2641,5676.3
509.7399,93.1
509.7601,785.9
509.8648,21.1
509.9328,184.4
509.957,436.5
510.0833,727.2
510.2664,1451.6
510.337,194.2
510.3548,443.4
510.8864,354.1
510.9025,830.1
510.9408,138.1
511.0544,347.3
511.1315,26.3
511.218,22.3
511.8266,184.8
511.8649,133
511.9393,313.7
511.9695,1535
512.0761,812.8
512.1009,458.6
512.1989,378.7
512.2907,568
512.9081,15518.1
513.3397,684.4
513.5286,21.2
513.6789,448.7
513.8225,24.2
513.9126,452.3
514.0365,394.8
514.6586,505.4
514.7216,718.4
514.9054,10983
514.9874,447.7
515.0211,392.5
515.2587,380.5
515.6564,295.6
515.6809,155.1
515.7401,319.6
515.8723,19.3
516.0587,22.6
516.1575,235.4
516.3067,5180.8
516.4073,505.1
516.7872,137.1
516.8355,175.5
516.9003,1182
516.9208,752.7
516.9514,403.8
516.9805,361.9
517.4863,211
517.5711,230.1
517.5887,267.4
517.7954,242.9
518.1071,182.9
518.322,475020
518.901,429.9
518.9047,385.4
518.9253,27944.7
518.9682,445.2
519.0637,415.7
519.1009,23.1
519.3254,109446.6
519.8428,612.9
519.9288,2541.9
520.0334,726.9
520.3289,11198.5
520.3401,44657.4
520.8193,305.3
520.8279,166.5
520.9224,16303.3
521.0678,474
521.1886,468.6
521.3434,8622.7
521.3851,365.1
521.5196,124.5
521.6522,346.7
521.7231,377.6
521.758,373.3
521.8232,176.8
521.8645,1594.7
521.9256,845.5
521.9773,3831
522.2846,232.7
522.3098,154.9
522.3557,61490.3
522.691,26.1
522.7135,193.6
522.7458,21.7
522.8427,188.7
522.9196,479.6
522.9373,4913.1
522.9503,146.2
523.1223,599.5
523.359,9755.9
523.3817,126.8
523.7215,18.6
523.8618,352.2
523.8846,26.6
524.0991,19.1
524.127,620.4
524.1467,784.4
524.173,158.4
524.2149,491.1
524.2495,206.4
524.2813,832.6
524.3714,108058.8
524.3879,135.1
524.6894,19
524.852,265.8
524.9327,931.3
524.9784,1310.3
525.0743,782.8
525.2276,157.1
525.3208,699.5
525.359,247.1
525.3748,29275.3
525.4908,135.7
525.9241,374.7
526.2341,24
526.2453,140.9
526.2883,377.8
526.3297,13524
526.3773,707
526.4508,207.9
526.6033,203.5
526.7307,477.8
527.0662,291.7
527.0852,140.5
527.2213,603
527.284,196.3
527.308,19.9
527.3338,1790.1
527.5529,120.9
527.7077,351.5
527.7937,338.5
527.8014,346.6
528.3448,1873.7
528.3992,479.4
528.4168,20.2
528.8821,6490
528.9539,1622.5
529.2314,309.7
529.5663,481.4
530.1159,382.4
530.1678,232.2
530.5981,836.9
530.8529,236.1
530.879,3758.7
530.8934,23.5
530.9158,324.8
530.9933,171.5
531.1367,368.7
531.2486,5152.6
531.31,204.4
531.7113,221.3
531.7613,289.6
531.7856,21.5
531.8353,370.3
531.8839,310.5
531.9206,176.8
532.162,20.4
532.2793,533.8
532.324,776
532.3377,5091.8
532.5906,17.6
532.6214,21.3
532.9144,580.3
532.9652,588.3
533.1505,478.1
533.2214,157.2
533.2553,323.4
533.265,694
533.9213,469
534.0438,299.6
534.296,109076.8
534.4384,533.5
534.4823,485.9
534.6537,131.9
534.7859,610.1
534.8992,14132.3
534.9292,130.2
534.992,165.4
535.0407,26.4
535.2161,20.8
535.2994,23205.7
535.5743,424.8
535.6717,479.1
535.7587,159.7
535.9934,177.2
536.0799,183.5
536.2941,5135.8
536.4654,486.2
536.5621,290.8
536.7902,529.4
536.8964,8851
536.9324,338.8
537.1017,381.7
537.2581,19.4
537.4098,190.8
537.6351,20.1
537.6658,158.5
537.8785,454
537.8985,413.2
537.9516,343.7
537.9724,321.9
538.6011,170.2
538.7239,243.9
538.8924,474.3
538.9106,1691.2
538.9318,1835.6
539.081,365
539.1081,488.5
539.5832,21.1
539.7054,496.5
539.7821,377.1
539.7867,523.7
539.7921,496.3
539.9787,664.6
540.2051,296.1
540.7586,16.7
540.763,16.8
540.9045,1079.5
541.7209,527.9
541.7542,323
541.7754,390.5
541.873,305.8
542.2919,139.5
542.3022,131.5
542.3221,76467.5
542.7434,165
542.9133,212.5
543.0024,198.4
543.3254,17039.4
543.4975,600.7
543.517,347.8
543.5492,20.4
543.8105,17.7
543.9683,380.9
544.1006,575.2
544.1758,235.1
544.1882,316.3
544.2341,170.3
544.2735,543.6
544.338,112720.8
544.3656,166.2
544.3856,189.2
544.4163,18.7
544.4483,169.9
544.8212,282.1
544.8567,964.3
544.9295,452.1
544.9489,1352.4
545.2647,328.3
545.3413,26975.6
545.8965,253.3
546.3534,184108.3
546.8191,823.5
547.1167,704.8
547.3567,45814.2
547.4298,160.9
547.6785,262.8
547.7447,205.4
547.8343,140.7
547.9016,453
547.9471,547.3
548.296,146.9
548.3599,4663.6
548.629,499.7
548.6676,227.2
548.7049,128.1
548.7155,116.6
548.8255,606.8
548.9777,19.4
548.9925,238.6
549.3468,540.4
549.4045,632.1
549.8129,521.3
549.8525,461.3
550.051,282.5
550.2609,453.4
550.2914,158.8
550.3297,1916.3
550.6361,613.9
550.6698,190.5
550.7746,182.2
550.8488,383.7
550.8732,1752.4
550.9838,396.7
551.1144,321.4
551.2776,943.5
551.5083,157.5
551.8839,470.4
552.0293,305.2
552.1994,295.6
552.2053,284.7
552.2096,201.2
552.8049,168.8
552.841,358
552.871,557.7
553.1091,152.9
553.248,307.2
553.3496,197
553.4033,599
553.4989,18.9
553.6569,114.4
554.1309,243.3
554.7764,316.5
554.9034,287.2
554.9488,440.4
555.2707,672.9
555.45,227.1
555.6297,396.8
555.7733,226.2
555.8422,20.6
555.9027,175.3
556.1265,143.2
556.2032,22.4
556.28,520.9
556.613,211.3
556.8762,182.6
556.8998,220.8
556.9414,151.9
557.7892,203.4
557.8066,162.6
558.0488,131.7
558.2962,15704.3
558.641,425.2
558.6632,366.3
558.8382,557
559.2475,19
559.2999,2302.5
559.4979,162.7
560.0892,292.3
560.1028,186.8
560.3115,17667
560.44,695.8
560.4452,720.7
560.6649,156
560.9212,584.9
560.9323,234.7
561.3156,3657.1
561.4141,925.7
561.4655,208.4
561.504,899.4
561.6779,114.5
561.7409,159.6
562.0598,242.9
562.3273,38609.8
562.365,29.9
562.6273,180.5
562.7369,406.1
562.8058,134.4
563.0742,27.2
563.3306,8079
563.6626,141.9
563.7082,569.7
563.861,168
564.0061,141.4
564.0849,22.1
564.1221,319.4
564.3246,776
564.4032,341.4
564.6362,425.7
564.9073,234.6
564.9733,181.2
565.8629,530.8
566.3221,46302.3
566.5516,856.4
566.8171,20.8
566.8363,307.1
566.8461,526.1
566.859,23.4
566.9627,579.2
567.0856,290.1
567.1658,204.1
567.3258,7655.5
567.9512,308.3
568.2101,254.7
568.2739,268.7
568.338,15845.9
568.4935,265.5
568.767,278.6
568.8174,374.8
568.9538,290.9
569.0212,69.2
569.3413,2132.9
569.3977,342.4
569.622,708.6
569.6414,147.5
570.0003,475.1
570.1849,22.4
570.4149,132.2
570.5831,145.8
570.5985,250
570.8668,8295.6
571.4341,310.9
571.5974,604.5
571.7395,166.5
571.923,25.5
572.6562,618.7
572.8642,4270.5
572.9803,1141.4
573.0638,171.4
573.5731,136.4
573.8757,143.7
574.284,506.2
574.736,417.2
574.8265,283.2
574.8602,926.9
575.1498,492.8
575.2775,139.7
575.3511,250.4
575.4647,291.6
575.504,5273.3
575.5954,210.5
575.797,337
576.2032,166.8
576.2573,487.7
576.2807,4080.6
576.3862,324.5
576.3969,25
576.476,164.1
576.5087,618
576.5426,377.6
576.7401,945.3
576.8839,9445.4
577.357,217.7
577.5201,1270
577.573,24.5
577.709,430.6
577.8241,204.9
577.9198,146.4
578.277,751.6
578.34,271.9
578.3608,349.7
578.4629,521.9
578.5213,235.9
578.881,8246.5
578.9631,283.8
579.0772,23
579.3009,500.2
579.3464,181.4
579.9407,243.4
580.1692,740.9
580.4471,422.2
580.5799,139.3
580.6958,471.1
580.8635,340.5
580.8781,1793.8
580.8962,978
581.1479,290.9
581.4874,208.4
581.8903,688.4
582.0249,168
582.0401,345.2
582.0866,441.1
582.0971,440.1
582.1034,260.1
582.1349,348.8
582.1499,733
582.1699,794.2
582.1831,168.8
582.1992,331.7
582.2169,30
582.2504,779.4
582.2582,650.6
582.2778,271.2
582.2962,8618.2
582.313,185
582.3353,1434.2
582.4065,439.1
582.4159,18.8
582.892,764.1
583.2564,237.1
583.2995,1863.3
583.392,261.8
583.4326,560.1
583.4469,315
583.5825,289.3
583.951,289.6
583.9721,164.1
584.0094,452.2
584.0462,39.4
584.1288,571.6
584.1487,751.5
584.3121,835.4
584.7683,181.4
585.23,266
585.2721,1004.6
585.3106,166.4
585.564,22.8
585.6077,506.9
585.7755,163.9
585.9407,355.8
586.1912,192.2
586.3097,2425.3
586.6852,135
586.7724,474.8
586.8411,1334.2
587.4813,503.8
587.5567,370
587.7131,157
587.8399,195
587.9897,520.5
588.239,19
588.2878,587.8
588.5194,517.9
588.6889,263.4
588.7116,180.5
588.8124,177.6
588.8386,2075.2
589.0771,757.8
589.1576,26.2
589.2456,503.2
589.3168,20
589.5018,284.7
589.56,20.5
589.7106,326.2
589.7393,148.1
589.7591,311.1
589.8485,19.5
589.9601,149.2
589.9842,663.1
590.2612,208.8
590.3223,3990.2
590.3445,205
590.6256,356.6
591.3258,617.2
591.379,212.2
591.9752,163.1
592.2303,346.2
592.256,745.1
592.6372,524.1
592.8008,206.5
592.8275,24.1
592.8581,4234.5
593.6036,19.9
593.6865,413.4
593.7828,402.7
593.8484,352
594.0255,455.4
594.0616,134.7
594.1025,2940.1
594.1164,465.8
594.2503,790
594.4203,551
594.5135,263.6
594.6074,303.4
594.7581,392.1
594.8548,4409
594.9519,509.6
595.3077,358.4
596.2443,532.4
596.3275,223.6
596.3545,140.7
596.7966,210.5
596.8551,568.3
596.8734,838.9
597.062,331.3
597.3377,308.3
597.4259,596.8
597.4491,5384
597.4681,504.9
597.4854,4290.1
597.6624,202.9
597.996,630.4
598.0716,175.5
598.4532,554.8
598.4891,307.8
598.6782,268.6
599.0476,279.2
599.263,21.2
599.4233,492.4
599.4421,586.7
599.4695,1470
599.5036,8538.3
599.6584,24.7
600.1117,19.2
600.1568,19.6
600.2231,20.8
600.2565,205.7
600.2807,321.1
600.3899,782.3
600.4693,1338.2
600.5069,1865.4
600.7923,241.8
600.9864,273.7
601.1345,438.5
601.1595,643
601.1964,134.8
601.2251,756
601.2493,173.5
601.2574,417.1
601.5182,2737.3
601.5637,142.3
601.6788,158.2
601.8905,176.6
602.115,449.8
602.1749,22.8
602.2234,191.5
602.2469,19.8
602.4757,311.5
602.5695,687
602.7462,18.4
602.8547,771.6
602.9335,154.7
603.0139,882.8
603.2117,321.2
603.2544,173.3
603.3902,17.8
603.5359,2628.4
603.5748,180
603.5994,477.3
604.0672,218
604.656,148.5
604.8572,879
604.9258,296.8
605.0358,334.9
605.0948,149
605.1087,681.5
605.2261,220.1
605.3321,34.1
605.6099,330.9
605.6993,18.4
605.7243,214.8
606.2303,23.9
606.2427,109.5
606.2761,309.4
606.297,600.5
606.4771,168.5
606.8814,333.7
607.0414,23.7
607.4041,20.2
607.5134,21.2
608.8324,938
608.9173,429.3
609.3718,26.1
609.5688,308.9
609.6314,20.9
609.6927,169.1
609.6999,358
609.9202,337.6
610.0172,23.1
610.0965,379.6
610.301,162
610.8461,210.4
611.0524,540.6
611.2282,148.4
611.3514,136.5
611.5397,233
611.7171,22.9
612.3449,412
612.3558,213.9
612.4449,184.6
612.4718,253
612.751,179.7
612.8139,21.5
612.8466,217.1
612.8904,21.9
612.9841,555.1
612.998,19.6
613.2396,280.4
613.3749,504.7
613.4001,409.8
613.9295,321.7
614.0432,126
614.1473,349.9
615.2199,18.8
615.4602,2732.6
615.616,530.5
615.7014,297.3
615.776,22.8
616.3381,357.7
616.4638,2114.3
616.7486,346.8
617.0104,171.1
617.0308,356.3
617.4755,20741
617.5979,444.2
617.875,319
617.9368,164.8
618.1032,1040.6
618.1837,218.3
618.4791,6178.9
618.5797,139.2
619.0463,237.9
619.4291,19.5
619.4914,6080.8
619.6078,176.7
620.0374,488.8
620.1198,237.3
620.1647,211.1
620.1794,319.2
620.2896,207
620.4952,1336.2
620.7449,24.4
621.251,245.8
621.4536,2779.1
621.4859,19583
621.8309,585.6
621.8658,134.2
622.0475,173.2
622.1913,170.4
622.2992,190.4
622.3689,24.1
622.4548,490.8
622.489,3614.5
622.7074,448.6
623.1361,2780.5
623.4686,927.3
623.4837,412.6
623.5038,2621.9
623.5803,477.2
623.859,27.5
624.1504,638
624.3502,18.8
624.4707,416.9
624.5862,23.7
624.8671,25.3
624.9226,607.2
625.0165,171.4
625.1147,21.6
625.2531,765.8
625.484,375.3
625.5186,765.9
625.8414,144.3
626.3238,428.9
626.5219,360.2
626.6222,282.2
626.8943,188.1
626.9197,308.3
627.5355,2494.3
627.6831,342.6
628.0399,943
628.2689,248.1
628.4148,335.8
628.4983,178.2
628.5385,1037.7
628.5717,165.9
628.7813,514.3
629.0281,264.5
629.0463,269.7
629.1528,7476.3
629.2364,541
629.7197,247.2
629.7449,235.4
629.9328,354.4
630.1534,686.3
630.3364,384
630.8216,415.3
630.9686,22.5
631.0422,410.1
631.1571,118.1
631.5224,176.3
631.7682,21.3
631.8337,220
632.0913,21.1
632.3119,397.1
632.7223,516.8
632.8184,18.8
633.2104,451.8
633.288,372.7
633.3297,569.2
633.3573,770
633.4475,702.5
633.5555,159.9
633.9302,135.1
634.114,184.6
634.5394,278.1
634.598,442.5
634.8431,2007.7
634.9312,370.8
635.2241,214.6
635.6388,22
635.8861,621.6
636.2329,442.3
636.3023,515.9
636.8394,2560
637.1244,17.7
637.1563,487.3
637.188,915.9
637.2477,316.7
637.5779,231.5
637.5833,355.9
637.5906,286.3
637.7448,362.5
638.0085,374.7
638.1841,196.1
638.5932,378.2
638.6263,345.1
638.7916,19.3
638.8373,702.8
638.9364,658.1
639.0072,419.2
639.3199,500.8
639.8989,348.6
639.9332,131.3
640.038,293.9
640.7584,130.2
640.8135,369.2
641.0945,670
641.3064,333.8
641.6394,562.2
641.7838,423.9
641.7999,770.9
641.8782,18.7
642.2304,399.1
642.3865,451.8
642.4525,176.3
642.6566,223.8
643.0134,194.2
643.0752,323.1
643.3728,20.8
643.6703,135.9
644.4136,189.1
644.4888,150.9
644.5834,158.3
644.8215,27.3
644.9234,284.8
645.0216,338.1
645.0438,246
645.1177,3448.7
645.285,279.3
645.3209,414
645.442,218.6
645.4591,225.3
645.4853,1281.2
645.593,416.7
645.6239,191.2
646.4577,1509.1
646.5517,425.5
646.7992,458.6
646.998,102.8
647.1223,243.7
647.4322,354.7
647.4506,397.7
647.5027,376.3
647.7237,389.3
647.7791,394.8
647.853,98.2
648.0579,426
648.432,209.2
648.5026,554.5
648.5322,158.7
648.8386,22.6
649.1097,185.5
649.2184,191.7
649.4904,864.4
649.5176,394.1
649.5344,332.1
649.6382,390.1
649.6693,272.3
649.7028,185.4
650.3383,566.5
650.3642,326.4
650.3825,298.3
650.4236,195.3
650.4389,485.8
650.5236,449.1
650.7373,614.5
650.8153,1396.8
650.8931,166.4
651.0232,34
651.0842,392.6
651.1348,14634.3
651.7914,466.4
652.1393,1410
652.6027,19.2
652.6278,20.6
652.8133,2367.7
653.1966,270.4
653.352,18.6
653.3837,572.8
653.5268,389.4
653.8678,180.3
654.0394,234.3
654.4631,263
654.6757,19.5
654.6915,648.2
654.7544,879.1
654.8113,1041.2
655.2494,197.8
655.3085,289.4
655.4297,488.6
655.68,107
655.7558,173.9
655.8233,286.5
656.3235,362.4
656.3302,563.2
656.3351,523.8
656.7234,419.7
656.8352,449.6
656.915,214.5
657.0228,242
657.092,752.9
657.1181,520
657.3441,417.2
657.5403,154.8
657.6237,417.3
657.8166,797.5
657.9261,124.2
658.3377,19
658.4297,821.6
658.5398,372.5
658.6998,272.2
658.8126,838.7
658.9477,114.7
659.1295,196.4
659.1454,19.1
659.7393,28.4
659.8036,149.2
660.0814,857.8
660.1939,178.4
660.2495,152.5
660.4605,162.6
660.5441,234.8
660.699,222.5
660.9577,134.9
660.9828,277.3
661.0823,1280.3
661.1526,642.6
661.3397,411.4
662.0183,305.9
662.2693,496.6
662.4296,789.5
662.5004,317.6
662.9423,140.3
662.9642,200.8
663.0443,20.4
663.0684,248.1
663.1124,316
663.4503,398.3
664.0408,158.9
664.1808,323.1
664.258,191.7
664.3684,697.1
664.4664,1207.7
664.6132,701.3
664.7132,325
665.2285,212.4
665.3235,126.7
665.3366,359.9
665.4174,145.4
666.3032,395.9
666.3658,1556.3
666.4837,4207.3
666.525,330.3
666.6711,273.4
666.7493,346.8
666.7832,248.7
666.9242,22.7
667.0995,10963.2
667.2104,653.9
667.3405,171
668.0745,108.2
668.2929,631.8
668.3356,112.5
668.4464,256.8
668.7038,653.4
668.9793,941.2
669.0017,117.4
669.2351,748.6
669.34,26.7
669.6537,117.2
669.9187,20.6
670.0571,21.6
670.0929,144.9
670.2799,341.2
670.4953,787.9
670.5981,106.2
670.7403,329.6
670.7849,473.2
670.8651,368.3
670.892,190.3
670.9921,273
671.0792,252.4
671.2928,190.7
671.5025,17.6
671.5667,237.2
671.9577,564.2
672.0052,893.8
672.4208,811.4
672.5224,268.1
672.6991,558.5
673.0708,454
673.1167,32532.1
673.2806,141.8
673.4266,912.8
673.4894,381.4
673.5063,351.3
674.0043,117.3
674.1205,5608.4
674.8412,337.9
675.3771,222.6
675.5442,11771.5
675.6327,138.5
675.9696,391
676.0217,114.5
676.0474,3289.3
676.3106,613.9
676.4191,886.5
676.5489,3362.2
676.705,499.4
676.8183,331
676.865,221.9
676.9392,634.5
677.3404,19.1
678.2243,315.5
678.3725,420.8
678.3886,357.7
678.471,420.2
678.4838,525.6
679.1397,400.1
679.5135,155.9
679.9569,211.2
680.0151,270.5
680.263,161.9
680.5993,189.1
680.6235,21.7
680.9185,159.5
681.0156,153.2
681.2051,692.3
681.8286,400.8
682.0645,7936.5
682.1606,203.6
682.3012,645.9
682.4462,383.4
682.4577,844.3
682.4876,19.5
682.7394,329.4
683.0632,1575.7
683.7199,190.9
683.8992,315.1
684.0573,174.7
684.3056,191.9
684.8348,286.4
684.8942,26.8
685.0725,149.7
685.0897,231.8
685.2568,234.2
685.2986,192.8
685.4358,3825.3
685.4963,19.9
685.7468,307.4
685.7634,17.6
686.1954,198.9
686.382,413.7
686.4013,666.1
686.439,1250.8
686.6321,359.2
686.7034,143
686.7589,172.1
686.9317,149.4
687.0231,585.6
687.1207,781.3
687.155,135.6
687.1842,129.6
687.3496,301.8
687.5266,331.7
688.3199,149
688.4125,446.1
688.8329,185.4
688.9348,21.8
688.9697,215.6
689.0812,10939.1
689.4273,665.1
689.4988,640.4
689.5339,186.2
689.5597,577.5
689.5885,231.2
689.7569,245.5
690.0875,529.8
690.1584,19.1
690.4528,1080.9
690.7654,277.4
691.0335,140.5
691.0727,138.8
691.1535,444.5
691.3418,93.6
691.3938,296.8
691.5994,339.1
691.8961,573.2
691.9979,507.8
692.2143,600.3
692.2933,828
692.3648,180.9
693.0411,356.1
693.0741,196.2
693.5083,734.4
693.8886,165.4
694.3729,429.1
694.5204,21.7
694.7993,509.9
694.8618,21.3
694.8938,478.6
695.0605,293.4
695.0986,24749
695.3366,20.3
695.463,366.7
695.4884,340.6
695.511,1805.6
695.9263,253.9
696.1026,1482.9
696.7625,321
696.7792,182
696.8154,529.6
696.8781,418.4
697.1855,361.2
697.213,249.7
697.5263,17878.7
697.5581,214.1
697.6034,24
697.9839,339
698.0294,1374.9
698.2825,99.9
698.4278,389.9
698.4489,105.3
698.4676,490.8
698.5297,6014.6
698.5822,738.7
698.7317,267.9
698.7927,358.6
699.0328,121.6
699.4885,135.6
699.5311,267.2
699.7635,267.3
699.8317,145.4
699.9638,153.5
700.0848,174
700.1731,21.3
700.2088,99.6
700.3393,394.7
700.3824,359.7
700.4468,678.6
701.362,166.8
701.4091,122.5
701.5602,31040.5
701.6341,22
701.7596,165.5
701.8278,428.8
701.949,1205.8
702.0291,397.3
702.0889,158
702.3423,2309
702.4085,175.1
702.5634,13048.5
702.8986,182.2
702.9144,246.6
702.9568,154.8
703.5757,80199.6
703.6143,400.7
704.0463,7006.7
704.4106,417.5
704.579,33789.2
704.6064,712.4
704.6628,137.2
704.693,190
704.7547,507.6
704.8113,312.4
704.9188,146.7
705.0559,1168.4
705.3034,348.4
705.3258,213.1
705.5824,3439.8
705.8011,167.8
705.9021,19.8
706.5372,422.1
706.6491,22.4
706.8736,760.2
706.9038,23.2
707.0548,449.1
707.5415,341.2
707.6491,150.9
707.9028,151.6
708.0766,687.4
708.4644,133.8
708.9244,19.4
709.5268,616.8
709.8249,24.6
709.8644,527.4
709.8915,618.5
710.0057,348.7
710.1771,276.3
710.2023,731
710.5272,138
710.6986,307.9
711.0634,6878
711.0733,7657.7
711.2479,159.2
711.3062,23.2
711.4881,305.5
711.5127,371.9
711.5421,3650.8
712.0691,438.8
712.2109,291.9
712.2459,190.7
712.2731,202
712.5165,280.9
712.5416,785.3
713.2765,19.2
713.3072,301.8
714.1534,279.4
714.3875,704.2
714.5384,836.6
715.1017,108.2
715.4125,178.1
715.7553,378.4
715.8343,797.7
715.9792,281.1
716.0602,619.2
716.0807,167
716.5368,457.1
716.789,847.6
716.9808,633
717.0806,13504.4
717.2326,749.5
717.3032,130.3
717.327,176
717.5857,200.3
717.6189,438.6
718.085,1172.2
718.1949,19.3
718.4703,308.5
718.5918,18.8
718.9353,444.1
719.1738,180
719.2396,645.6
719.3601,258.8
719.4728,845.3
719.6375,302.9
719.8146,484.7
720.0116,954.3
720.0208,938.2
720.625,323
720.7793,350.1
721.0763,128.4
721.3925,385.6
721.4784,42673.5
721.8902,425.9
722.0338,139.3
722.1122,170.6
722.3023,465.4
722.4357,335.1
722.4818,13897.5
722.6021,406.3
722.6578,279
722.8325,630.2
723.4018,312.6
723.495,15228.5
723.5418,36451
723.8036,137.6
723.9611,296.5
724.0516,564.6
724.4019,417.9
724.4964,3336.3
724.5452,12588.7
724.8723,481.7
724.9996,197.8
725.1726,128.1
725.2471,159
725.3984,184.6
725.5577,84077
725.7054,21.8
725.8255,622
725.9287,291.2
726.0024,185.8
726.0285,5436.9
726.1927,18.7
726.2132,217.3
726.5054,587.1
726.561,36488.9
727.0366,999.2
727.5636,6432.2
727.8227,242
727.9181,18.9
727.9987,280.8
728.1081,151.7
728.2015,175.5
729.212,332.4
729.2463,429
729.2901,150.6
729.5245,20.4
729.5913,17270.7
730.1594,19.3
730.3818,403.9
730.5384,2329.6
730.5954,5291.6
730.6649,485.1
730.762,275.9
731.1524,21.6
731.6078,5592.1
731.6927,426.3
731.8859,132
732.2414,19.3
732.3058,193.9
732.5545,32689.1
732.61,1949.1
732.6377,337
733.0448,3394.8
733.0557,3506.3
733.4396,413.1
733.5581,10974.8
733.6133,182.4
733.6452,134.2
733.6694,17.9
734.0517,532.9
734.5712,4012.4
734.9532,217.6
734.9713,142.9
735.3256,24.7
735.5743,238.8
736.1859,207.1
736.5103,149.1
737.0245,436
737.1527,19.8
737.4525,3967.3
737.5286,399
737.6341,306.7
737.9391,197.3
738.2037,677.7
738.4013,179.3
738.4578,920.8
738.8273,19.1
739.0625,9232.6
739.1203,683.3
739.1567,1453.4
739.4549,818.9
739.515,3004.5
739.551,19.3
740.044,234.2
740.0671,226.7
740.3397,314.1
740.422,219.1
740.4835,262.8
740.5641,489.7
741.043,178.8
741.0606,355.1
741.2237,688.8
741.4103,194.9
741.4752,883
741.5316,10630
741.9482,690.2
742.0015,1563.4
742.3199,144.7
742.3407,416.5
742.5359,948
742.5753,4677.8
742.9531,18.2
743.4155,565.4
743.4371,387.1
743.4615,1269.6
743.5791,1661.4
743.6604,185
743.8645,297.9
743.8983,455.7
744.0096,375.7
744.3628,104.4
744.5549,677.3
744.5913,3299.7
744.7258,706.3
744.9079,24.2
744.984,363.2
745.2911,19.9
745.4786,52746
745.5953,886.4
745.7022,819.6
746.3555,656
746.4822,20896.6
746.5704,1648.4
746.6069,1470
746.6453,238.3
746.6694,267.4
746.6868,222.2
746.7343,139.5
747.1658,133.7
747.4952,11828.7
747.5728,641.1
747.7047,19.9
748.0101,2802.3
748.4992,2498.4
748.5675,206.9
748.7877,217.5
748.8932,122.8
748.9456,724.1
749.0105,794.5
749.0514,257
749.51,6372.8
750.0651,22.6
750.9507,144.2
750.9788,130.7
751.2427,175.4
751.573,13649
751.687,257.5
751.9532,599.1
752.1854,172.3
752.2191,18.9
752.3077,399.2
752.5212,2399.7
752.576,4533.9
752.837,184
753.4734,276.3
753.5889,2808.6
754.124,383.1
754.5369,24627.7
754.7108,183.8
755.0274,2457.9
755.0377,2763.1
755.1739,247.1
755.3706,463
755.5396,7572.3
755.5776,190.5
755.6309,173.9
756.056,304.2
756.1557,488
756.4844,333.7
756.5544,28552.4
756.9589,169.6
757.1294,19.3
757.2788,289.5
757.5003,842.8
757.5578,11066.9
757.6207,1322.7
757.6955,190.8
758.1968,176.6
758.5702,727738.8
758.626,475.3
758.6499,211.5
758.711,24.8
759.3,831.5
759.5737,326656.3
759.6392,2126.3
759.7168,710.1
759.8983,253.3
759.955,163.6
760.1563,137.2
760.3014,126.2
760.5866,421088.9
760.6391,181.1
760.9249,149.3
760.9744,223.6
761.0445,2986.8
761.2366,378.9
761.452,9148.4
761.5895,192069
761.9469,472.3
762.4543,2360.4
762.5538,172.8
762.5926,44051.4
762.6736,387.3
763.5949,4933.3
763.6842,373.8
763.7298,617.9
763.9754,2736.3
764.0403,289.9
764.0725,22.2
764.2391,122.5
764.5607,2285
764.8675,549.4
764.9339,332.1
765.3098,223.3
765.4706,338
766.1038,334.8
766.4665,755.2
766.5754,26505.8
766.7044,184.1
766.7659,20.9
767.019,356.8
767.1239,118.3
767.5459,239.3
767.5789,10852.7
767.9171,497.2
768.2507,20.3
768.4491,276
768.5157,18.4
768.5541,2433.9
768.5912,34610.2
768.9127,249.1
769.0022,287
769.199,466.9
769.4778,11237.8
769.5948,14652.7
769.7869,275
769.7965,276.7
769.964,323.3
770.0777,22.8
770.0973,281.5
770.3235,138.4
770.4773,853.6
770.5667,211.8
770.6059,1442.7
770.992,2704.6
771.4961,1285.2
771.7361,200.4
771.8954,274
771.994,614.3
772.3248,802.3
772.4926,994.6
772.552,1084.7
772.5858,7102.5
772.7327,217.8
772.7561,268.4
773.5101,7969.5
773.5893,1947.7
773.917,313.3
773.9778,232.2
774.0581,161.1
774.2512,137.3
774.3722,467.7
774.4501,846.2
774.5124,376.4
774.5629,310
774.6028,2296.7
774.7196,442.6
775.3683,743.8
775.412,305.7
775.5205,147.8
775.5699,248.5
775.7824,479.8
775.9172,22.7
775.9363,387.9
776.0153,337.2
776.0423,139.3
776.1891,195.8
777.0084,3594.1
777.3391,245.2
777.4304,25.4
777.5441,831.6
778.1596,18.9
778.4206,466.8
778.4478,161.6
778.5367,16306.2
778.7701,164.9
778.8904,107.8
779.1391,424.6
779.5395,5540.3
779.6094,587.8
779.9495,984.2
780.3437,485.5
780.5524,509643.4
780.6067,397.4
780.8889,294.7
780.9489,22.6
781.267,361.9
781.2864,548.7
781.3341,322
781.556,230372.1
781.6914,241.9
781.8525,146.9
782.57,1077954
783.0269,5078.7
783.1704,304.9
783.5733,495646.2
783.9635,285.1
784.5872,308416.6
784.648,150.8
784.7467,113.9
785.3276,18.9
785.454,240.4
785.5899,157330.4
785.6535,6886.9
785.8634,317.5
786.4598,323
786.4832,270.8
786.6022,272604.7
786.6564,1881.4
787.2129,205.2
787.2353,22.7
787.3092,182.8
787.6051,133400.1
787.6698,1478
787.8116,307.7
788.3328,582.1
788.5573,11815
788.6044,15736.6
788.6199,29104.8
788.6729,505.5
789.077,415.9
789.2727,398.7
789.4874,824.8
789.558,1317.6
789.6218,12994.6
789.8885,669.2
790.4867,208.9
790.5455,713.3
790.5739,20880.2
790.6236,1229.6
791.1224,138.4
791.1312,130.3
791.5387,183.3
791.5761,6468.5
791.6956,436.3
792.1672,186.7
792.3133,22
792.3459,374.7
792.4453,25.3
792.4637,150.7
792.5078,416.7
792.5531,772
792.5912,10265.7
792.9419,126.5
792.985,945.8
793.5949,1097
794.1582,303.6
794.3006,308.3
794.364,396.3
794.4384,193.7
794.5034,410.6
794.5682,3646.2
794.6069,34216.2
794.6499,362.2
795.3509,391.8
795.6102,12640.4
796.2057,564.8
796.2423,339.9
796.5263,83518.1
796.5861,10940.5
796.6237,7120.7
796.8262,178.1
796.9546,19.1
797.5295,36190.6
797.5899,2175.5
797.6257,2644.5
797.681,418.5
798.5425,36663.2
798.5991,794.6
798.7766,121.7
798.9997,660.4
799.0865,330.4
799.5453,15123.8
799.6698,964.4
800.5414,701
800.6749,233.1
801.0989,241.1
801.3087,194.6
801.4236,386.7
801.5423,688.5
801.6897,387.6
801.8811,481.9
802.1468,803.8
802.2731,333.1
802.5366,33652
803.4318,19.5
803.5408,13270.8
803.8653,140.7
804.3793,203.7
804.4196,209.3
804.5524,542004.8
804.671,322.4
804.7101,408.1
804.9332,108
805.4579,387.9
805.5557,255020.7
805.6042,248.2
805.9353,327.7
806.4864,207
806.5699,378668.7
806.6539,18.8
806.6974,23.2
806.7286,332.4
806.9345,332.6
807.5728,193704.5
807.6337,1495.6
807.7343,349.9
807.9225,299.5
808.2246,832.6
808.5857,253240
808.9567,170
809.3214,309.3
809.5886,129985.1
809.6536,305.5
809.6934,548.2
809.8798,376.9
810.602,359555.7
810.7349,439.6
810.9403,22.5
811.0604,151.3
811.2683,334.8
811.4402,413.5
811.6052,181885.6
811.6699,10850
811.7939,736
811.9675,407.5
812.189,191
812.3959,534.3
812.4416,22.7
812.5703,325.4
812.6027,21131.9
812.62,61596
812.6739,2271.4
813.3077,615.5
813.6217,35775.4
813.6857,5991.4
813.8803,20.4
813.9278,185.8
814.0053,244.6
814.0413,644.3
814.2432,17.9
814.3448,17.7
814.5731,3526.9
814.6235,5461.8
814.6886,2691.7
814.7577,1053.1
814.804,460.5
814.9807,159.3
815.4218,25.2
815.5618,1041.7
815.6258,238.4
815.7047,182.4
816.0632,480.2
816.5891,14534.4
816.9379,662.2
817.0537,144.6
817.1496,989.7
817.3657,575.9
817.5927,3166.2
817.764,20.4
817.8644,314
818.2735,103.1
818.5093,4395.2
818.5689,929.2
818.6062,2895.9
818.8198,318
819.1054,280.1
819.1526,18.6
819.4599,590.5
819.6081,816.6
819.889,18.9
819.9527,1269.9
820.0333,472.5
820.0545,349.9
820.5262,99171.4
820.5856,1805.5
820.6221,283.8
821.0952,337.2
821.1169,18.9
821.2237,772.3
821.4067,19.5
821.5298,43712.4
821.964,611
822.5433,27930.7
822.5774,498.2
822.9154,170.2
823.5452,14178.5
823.5938,392.4
823.9921,224.6
824.1138,357.5
824.5582,18095.5
824.5899,372.9
824.6586,145.9
824.9764,133.3
825.0551,24.8
825.1039,279.2
825.5608,7148.8
825.719,284.2
826.0697,263.9
826.1064,148.6
826.2681,367.1
826.4243,198.7
827.8445,133.7
828.0932,759.9
828.5524,131201.1
829.0969,158.6
829.5559,64301.7
829.5923,135.7
829.8223,571.3
830.3253,317.1
830.5086,394.5
830.569,79452.5
830.9922,241.2
831.5716,38592.6
831.636,23.5
831.7474,324
832.1224,117.3
832.1569,116.4
832.2666,356.1
832.584,180910.2
832.6155,377.2
832.6421,842.4
833.1929,959
833.4353,608
833.5873,90805.3
833.6508,374.9
833.9112,504.5
834.2593,253.7
834.602,71511.8
834.6498,885.8
834.7511,331.3
834.8782,208.9
835.0159,23
835.1543,416.3
835.4751,132.2
835.6046,38531.4
835.668,2226.6
835.7237,186
835.7636,288.9
836.1008,20.2
836.1603,269.7
836.2075,106.8
836.6196,8487.6
837.1428,189.7
837.184,20.9
837.394,403.8
837.6214,4085
837.8795,148.7
838.0413,203.5
838.2723,325.7
838.5064,854.6
838.5481,253.2
838.6335,1373.4
838.7001,280.5
839.0928,413.2
839.2474,324.3
839.4457,193.7
839.6372,214.1
839.8987,22.2
839.9615,418.9
840.1596,152.6
840.2297,559.9
840.4633,480.8
840.8555,202
840.9507,238.8
841.0075,776.4
841.0437,247.9
841.1279,774.2
841.164,177.3
841.3706,314.7
841.4544,501.2
841.5234,482.4
841.5616,26.2
841.8002,21.7
841.8689,19.2
841.9821,1579.9
842.4493,670.2
842.4777,255.8
842.6713,164.8
842.7294,349.4
842.8952,561.1
843.0558,614.2
843.3723,551.2
843.7362,458.7
843.8398,307
844.1509,329.6
844.5261,22602.6
844.9064,137.9
845.2299,195.9
845.3023,164.5
845.3922,353.4
845.4558,653.6
845.5302,9791.2
845.639,423.9
845.8969,598.6
845.9368,146.5
846.424,284.6
846.4822,568.1
846.543,9918.4
846.6488,593.6
846.98,18.7
847.1715,410.3
847.5458,1912.9
847.8446,392.5
847.939,453.7
847.9855,245
848.4348,602.5
848.5575,27067.1
848.7077,671.8
849.2041,310.7
849.402,122.4
849.4946,449.5
849.5615,10992
849.8876,19.2
850.456,883.5
850.5762,434.1
851.2259,327.4
851.5546,515.6
851.921,194.4
851.9692,153.8
852.4283,144.7
852.4761,226
852.7413,27.4
853.3117,163.2
853.9565,569.4
854.3445,975
854.3866,385.2
854.4437,1166.9
854.6375,861.8
855.119,520.8
855.5713,920.8
855.6647,394.2
856.4664,302.1
856.5842,21138.3
856.6166,287.7
857.587,7019.6
857.6857,23
858.2816,333.3
858.5327,748.3
858.6005,980.3
859.1064,245.2
859.3256,297.7
859.3909,968.9
859.5503,20.8
859.5774,702.7
859.6177,1691.1
859.8451,387.3
860.3739,578.6
860.5093,29.5
860.6173,176
860.9563,204.7
861.3789,431.2
861.8958,19
861.9613,215.6
862.2243,205.3
863.4409,19.1
863.6878,856.9
863.7285,195.3
864.3427,172.5
864.6568,971.3
864.7743,633.5
864.8312,370.3
864.9952,377.4
865.2614,327.2
865.4984,126.5
865.6809,911.9
865.8109,499.9
865.9266,1614.7
866.469,339.6
866.5172,582.3
866.8094,98.9
866.8864,778.9
867.6473,137.4
868.9285,21.5
869.3453,808.2
869.4274,634.2
869.4749,477.4
869.5359,1477.2
869.5538,901.2
869.5849,2919.9
869.5936,2914.3
869.6562,2731.3
869.6757,1662.1
869.7032,3039
869.7313,5258.1
869.7913,3225.5
869.8323,2907.5
869.8774,2769
869.9279,1409.1
869.9649,942.6
869.9937,898.3
870.0813,138.7
870.1938,542.7
870.3231,247.5
870.5326,218.7
870.8929,23.3
871.0536,138
872.546,1403.1
872.9131,20
873.0686,430.1
873.303,606.1
873.4269,323.1
873.4647,246.2
873.4894,818.4
874.212,479.6
874.235,176
875.0241,359.4
875.2503,714.8
875.4303,554.3
875.4671,441.7
875.4865,416.9
875.8994,768.1
876.3558,147.6
876.4539,270.8
876.8588,213.8
876.9213,206.3
877.2485,394.8
877.3894,486.6
877.5269,239.7
877.6334,862.1
878.1247,289.6
878.1923,615.2
878.6759,248.5
879.4738,258.4
880.0457,211
880.2421,291.7
880.915,439.5
881.0533,192.6
881.662,208
882.0198,327.8
882.3781,19.3
882.4575,510.4
882.6931,18.1
882.7456,19.6
882.7736,414.2
883.0565,174.4
883.257,20.5
884.4235,1991.4
884.6629,585.6
886.011,114.7
886.1454,24.8
887.4237,397.9
887.6346,497.7
887.8349,1418.6
888.4758,638
888.607,315.7
889.1837,133.8
889.5778,603.3
890.1489,166.5
890.3129,821.4
890.6758,246.2
891.5958,25.9
892.3532,548.5
892.3994,134
892.6889,27.9
892.8092,20.4
893.0622,626.1
893.1059,909.3
893.2733,343.4
893.5887,22.9
894.5656,168.3
895.2656,208.8
895.3527,364.3
895.5089,48.4
896.2332,19.5
896.7531,195.7
896.8484,137.2
896.9123,177.5
897.1226,1258.7
897.5875,23.2
897.8581,847.8
897.9217,24.3
898.1638,279
898.6926,516.7
898.8401,887.1
899.569,142
900.9164,763.6
900.9997,432.9
901.7361,628.9
901.9169,963.2
901.9413,206.8
902.101,23.3
902.1341,432.8
902.3246,152.2
903.1219,389.2
904.6631,376.5
905.172,520.7
905.325,19.4
905.5636,283.3
906.0424,21
906.3665,773.9
906.6517,320.1
906.688,371.2
907.0189,742.5
907.4792,547.7
907.6033,253.1
907.6512,742.7
907.742,128.4
907.9871,127.3
908.331,499.7
909.1564,680.3
909.2788,24
909.3099,177.1
909.7141,341.6
909.9335,23.7
910.1071,825
910.1442,129.8
911.0613,300.3
911.2304,165.8
911.2586,146.2
912.3914,150.6
912.4228,511.7
912.9507,22.6
913.0876,245.9
913.6604,180.5
913.6939,392.1
913.8566,206.3
913.9684,233
914.1258,22.5
914.4475,783.9
914.7321,25.9
914.8807,346
914.9221,191.4
915.5566,520.6
916.6683,879.9
917.3575,297.3
917.5409,321.7
917.8544,18.6
917.9931,567.9
918.129,828.4
918.1814,667.9
919.2974,202
919.3954,1096.7
919.6945,759.4
919.7454,155.8
919.8988,21.3
920.3832,865.7
920.4207,207.6
920.562,395.6
920.7117,181.1
921.056,351.9
921.389,612.2
921.4467,617.9
922.3341,333
922.5058,232.5
922.6948,568.6
922.7275,282.1
923.0179,22.5
923.197,503.8
923.4691,370.7
923.7635,428.9
923.787,1058.1
924.3002,20.8
924.6497,20.4
924.8195,128.6
925.1086,121.9
925.205,194.2
925.5363,438.4
926.0943,154.4
926.3864,134.2
926.6725,624
926.7704,1020.4
926.8349,700.5
927.3092,1525.8
927.4491,207.7
927.8973,385.2
929.4465,188.6
929.6238,172.2
930.369,419
930.5073,349.7
930.596,433.2
930.7824,473.2
931.3176,1589.1
931.4027,250
931.7029,925.3
932.3373,333.6
932.4577,197
932.7283,829.7
932.8055,22.2
933.0034,447.8
933.2207,219.3
933.2463,429.1
933.9789,167.5
934.5393,404.4
934.7505,18.6
934.9757,19.9
935.0045,626
935.6031,129.3
936.254,576.1
936.5604,22.6
936.6489,540.5
936.7961,933.2
937.3246,191.8
937.5953,311.1
937.8286,18.2
938.6048,672.1
938.6457,373
938.762,17.9
938.9472,289.4
939.0619,145.9
939.2697,653.5
939.4622,364
940.3838,148.6
940.523,378.5
940.702,562.8
940.9448,21.4
941.2831,222.5
942.0426,311.7
943.0817,472
944.0089,269.9
944.2738,474.6
944.4646,610.6
944.5136,992.6
945.2131,172.2
945.2483,153
945.9498,161.6
946,352.2
947.1289,448.1
947.2301,20.5
947.2826,302
947.5609,26.4
947.799,377.9
948.0239,362
948.3252,174.7
948.4439,695.7
948.5317,406.2
948.6538,346.5
948.911,26.9
948.9498,241.2
948.9823,167.5
949.2661,137.8
949.3835,824.2
949.482,309.7
949.9479,728.8
950.2614,1119.9
950.3365,27.3
950.366,172.4
950.7265,280.3
951.7709,1212
951.809,814.7
952.172,368.4
952.8072,392.7
953.0334,18.2
953.1762,199.7
953.4223,388.6
953.5216,383.9
953.5761,21.4
953.7284,221.3
953.9221,200.4
954.4525,378.2
955.6046,159.4
955.9039,567
956.0667,282.1
956.2593,599.7
956.2975,574.5
956.5229,643.1
956.6751,284.7
956.7687,437
956.9705,411.7
957.3178,1904.3
958.2993,282.9
958.3614,262.7
958.7432,354.3
958.7947,184.1
959.6896,132
960.3025,247.9
961.0225,205.6
961.527,111.5
961.9564,484.9
962.0057,365.2
962.1932,24.6
962.3086,286.1
962.8406,20.1
963.1337,273.3
963.2529,235.7
963.7233,404.9
964.033,225.8
965.417,1228.3
965.4631,668.9
965.4903,214.9
965.8101,238.4
966.0073,339.6
966.0665,633.9
966.2137,382
966.5829,189.3
967.1078,24.3
967.2666,703.1
967.6427,206.9
967.8572,326.6
967.9377,359
968.5363,133
968.8998,174
968.9782,209
969.9943,307.9
970.2787,196.7
970.6974,25.3
970.9834,319.2
971.086,145.8
971.3307,372.1
971.5127,198.6
971.8345,265.9
973.0799,332.8
973.1263,19.1
973.3396,1380.7
973.6688,353.2
974.0686,216.8
974.1912,340.3
974.6647,705.3
975.0454,448.8
975.2614,486.1
975.5401,846.4
975.6566,376
976.3695,202
976.846,501.2
977.0611,116.5
977.2329,151.1
977.6387,24
977.7419,728
978.3261,535.5
978.9143,151.8
978.9908,332.3
979.1382,551.8
979.1916,184.3
979.2889,456.3
979.5161,127.5
980.0957,954.4
980.1657,183.1
980.2148,642.1
980.2968,19.1
980.3564,1409.6
980.396,521.3
980.7616,742.9
981.5844,187.3
981.7537,838.1
982.5148,1150.4
982.583,907.6
982.9484,188
983.48,658.6
983.5863,641.8
983.6004,714.2
983.6096,694.9
984.1635,674.9
984.1982,614.3
984.2519,17.2
984.5048,162.8
985.1921,381.1
985.2999,759.6
986.0824,881
986.5274,20.8
986.5697,320.2
987.9966,219.8
988.2245,490.1
988.4951,650.1
989.1959,19
989.3529,996.7
990.1632,563.6
990.2747,360.6
990.8911,803.1
990.9004,708.1
990.963,519
991.0592,212.9
991.1597,147.9
991.2456,625.2
991.6501,630.8
991.9245,21.5
992.1731,509.6
992.4106,20.4
992.8567,142.4
992.9131,184.1
992.944,249.8
993.0454,137.3
993.1018,434.1
993.2201,579.9
993.5256,198
993.5569,19.3
993.6435,1433.7
994.4446,482.3
994.5088,198.9
995.0501,588.6
995.576,243.5
995.6501,684.4
995.7421,448.2
996.5192,195.6
996.7311,349.1
997.2998,285.3
997.4076,152.2
997.8898,324.5
998.1171,1088.4
998.2274,510.8
998.6298,1469.3
998.7715,146
999.1078,562
999.4427,22.8
999.9202,485.9
999.9841,176.8
