SPECTRUM - MS,
9.RAW,
FTMS + p ESI Full ms [50.00-1000.00],
Scan #: 1-40,
RT: 0.01-1.97,
AV: 40,
m/z,Intensity

50.0061,492.8
50.0352,480.2
50.0475,462
50.0479,215.2
50.0555,184.2
50.0632,686.1
50.0818,128.6
50.0873,152.4
50.1015,500.2
50.1295,195.9
50.1317,336.2
50.1573,639.3
50.1826,17.8
50.1896,112.4
50.2007,116.4
50.231,16.5
50.2319,18
50.2744,303.5
50.2779,125.2
50.2798,191.3
50.2884,154.2
50.2908,21.5
50.3197,267.1
50.3225,300.5
50.3263,478
50.3512,18.5
50.3643,443
50.3662,287.2
50.3669,199.9
50.3694,294.1
50.3828,147.1
50.4277,146.2
50.4352,217.4
50.4377,267.3
50.4553,186.4
50.462,202.2
50.5114,313.8
50.5146,356.1
50.5159,622.4
50.5189,17.2
50.5342,139.2
50.5379,263.1
50.5398,481.6
50.571,328.4
50.6077,156
50.6307,498.4
50.6325,425.4
50.6376,129.7
50.6462,18.4
50.6662,590.9
50.6695,472.2
50.7164,251.2
50.7216,138.9
50.7356,152.7
50.7371,276.7
50.7443,133.3
50.7448,407.1
50.7693,282.6
50.788,370.1
50.797,396.5
50.8215,636.6
50.8465,416.8
50.8523,235.5
50.8583,453.6
50.8703,214.5
50.877,182
50.8931,439.4
50.9006,409.2
50.918,274.3
50.9323,151.1
50.954,352.6
50.9655,209.8
50.9689,204.9
50.9694,203.3
50.9795,285.5
50.9805,407.6
50.9857,482
50.9873,535.1
50.9959,217.7
51.0022,247.2
51.0067,18.1
51.0108,187.4
51.0239,553.4
51.0252,35.1
51.0365,335.6
51.0422,32.9
51.056,40.1
51.0567,564.3
51.067,397.8
51.0709,466.7
51.0728,263.1
51.1026,156.7
51.1104,150.4
51.1337,19
51.1368,526.2
51.148,211.8
51.1574,14.8
51.1825,186.9
51.1939,244.1
51.2079,117.9
51.2152,18
51.2186,182.2
51.2524,260.9
51.2795,515.6
51.2808,139.5
51.2818,283.8
51.2904,208.9
51.2936,154.1
51.2963,277.5
51.3014,17.5
51.3097,651.5
51.3151,17
51.3253,106.1
51.337,143.4
51.3438,422.8
51.394,483.1
51.3965,143.3
51.4014,363.5
51.4124,726.4
51.4166,206.3
51.4228,130.5
51.4284,171
51.4288,39.5
51.4321,184.7
51.4464,321.4
51.477,142.9
51.5062,627
51.5209,347.8
51.5241,409.3
51.5326,16.4
51.5343,346.6
51.5367,372.8
51.5433,192.4
51.5564,459.7
51.5628,236.4
51.5647,221.9
51.5662,128.3
51.5673,380.7
51.5733,16.9
51.6024,216.6
51.6276,148
51.6498,169.7
51.6631,218.5
51.6742,261.1
51.6799,18.7
51.682,289.4
51.7222,333.3
51.7316,121
51.7411,171.1
51.7487,479
51.7568,373.1
51.7604,297.7
51.7694,257.7
51.7804,808
51.7944,144.8
51.8035,21.1
51.8076,127.1
51.8232,713.1
51.8269,254.6
51.8342,251.1
51.8424,203.7
51.8788,414
51.8832,140.8
51.8876,401.2
51.9061,309.7
51.9154,416.3
51.939,634.7
51.9415,15.9
51.9533,279.4
51.9583,229.1
51.9742,415.7
51.9752,258.3
51.9759,16.6
51.9866,382.6
51.9917,236.8
51.996,164.1
52.0049,289.2
52.0152,19.4
52.0367,583.6
52.0406,525.7
52.0677,280.5
52.0828,167.7
52.0874,154.9
52.0918,578.7
52.0952,375.6
52.0962,428.8
52.1015,18.1
52.1053,152.1
52.1114,199.8
52.115,257
52.1347,197.6
52.1382,537
52.1442,316.6
52.1494,288
52.1547,21.9
52.1672,16
52.1718,300.1
52.182,498.4
52.2013,746.4
52.2195,139
52.2216,341.2
52.2245,419.1
52.2262,166
52.2545,288.3
52.2657,282.3
52.2702,483.4
52.2801,208.9
52.3021,673.7
52.3121,387.9
52.3182,139.5
52.3329,16.8
52.3357,17.1
52.338,228.3
52.3653,18
52.379,216.8
52.3943,657.5
52.398,127.1
52.4221,140.3
52.4351,15.8
52.4489,487.5
52.4858,516.2
52.4916,169.8
52.548,343.5
52.5659,338.3
52.5704,330.7
52.579,223.8
52.5952,184.9
52.6119,185.6
52.6136,331.8
52.6301,17.3
52.6477,191.7
52.6508,153.3
52.6578,158.9
52.665,121.7
52.6714,20.9
52.6794,240.2
52.6805,565.7
52.69,693.1
52.6992,18.8
52.7086,42.3
52.7124,169.1
52.7257,251.9
52.7335,558
52.7379,339.8
52.7395,435.4
52.7526,16.5
52.7572,194.1
52.7666,151.8
52.7716,446.4
52.7736,106.2
52.781,451.4
52.8044,254.8
52.8197,462.4
52.8345,34.8
52.8358,256.9
52.836,362.5
52.8365,895.4
52.8368,890.6
52.8376,1590
52.8381,1539.1
52.8388,1924.3
52.8392,796.6
52.8396,654.7
52.8508,149
52.8598,1005.4
52.8664,293.3
52.8823,207.2
52.9082,183.5
52.9134,214.3
52.9139,146.9
52.9145,575.2
52.9309,288
52.9375,180.1
52.9407,361.7
52.9442,720.2
52.9464,210.7
52.9577,249.1
52.9634,18.8
52.9669,205.2
52.9676,294.6
52.9775,358.5
52.981,203.5
52.9879,16.2
53.0122,195.1
53.0205,525.5
53.0452,392.8
53.0463,226
53.0566,16.1
53.0825,689.1
53.0907,148.9
53.1015,411.4
53.1063,260.1
53.1096,701.3
53.1246,17.3
53.1378,308
53.1404,621.9
53.1474,17.1
53.1542,189.1
53.1604,154.8
53.1729,175.4
53.1737,191.2
53.1885,400.5
53.1909,233.1
53.1959,18.9
53.2255,282.8
53.2273,17.9
53.2481,214.3
53.2686,116.4
53.2692,15.4
53.2728,252
53.2749,153.3
53.2771,656.7
53.2961,146.5
53.2971,275.7
53.3064,193.7
53.3174,684.4
53.3368,136.4
53.3459,131.6
53.3467,458.6
53.3519,410.7
53.3528,16.6
53.3736,292.9
53.3809,236.3
53.3814,18.7
53.3939,437.7
53.3987,110.9
53.4137,14.9
53.418,333.6
53.4606,136.1
53.4664,322.7
53.487,270
53.5027,574.1
53.5178,265.9
53.5274,283.4
53.529,342.6
53.5507,206.7
53.5553,418.5
53.5611,150
53.5626,15.3
53.5676,329.5
53.579,144
53.5802,17
53.5823,167.6
53.594,379.3
53.5978,133.7
53.5981,160.7
53.603,658.7
53.61,532.5
53.6202,347.3
53.6229,309.1
53.6256,325.8
53.6551,17.2
53.6675,298.5
53.689,39.2
53.6897,588.5
53.6999,300.7
53.7079,324.9
53.7141,267.7
53.7218,406.7
53.7232,231.6
53.7564,578.3
53.7579,136.2
53.7635,39.8
53.7672,17.2
53.7707,291.5
53.7776,17.3
53.7951,364.2
53.8137,145.7
53.834,569.3
53.8488,600.9
53.8532,141.4
53.8588,15.1
53.862,218.8
53.8779,372.5
53.8956,533.7
53.9077,366.6
53.9087,36.3
53.9116,18.3
53.9134,532.7
53.9171,169.9
53.9297,190.7
53.9417,552.2
53.9497,450.4
53.9502,146.1
53.9586,323.6
53.96,310.3
53.9702,15.4
53.988,148.4
53.9896,154
53.9913,174.5
53.9964,210.6
54.0163,308.6
54.0215,183.2
54.0252,208.7
54.0444,127.6
54.0486,465.3
54.0555,290.7
54.0569,638.5
54.0792,649.2
54.0837,140.4
54.0887,132
54.1042,129.6
54.1054,161.4
54.1081,149.6
54.1324,124.2
54.1409,224.2
54.1632,135
54.1787,190.6
54.1832,21.1
54.1976,620.8
54.198,118.8
54.2034,204.2
54.2076,16.9
54.2295,262.5
54.2349,342.6
54.2354,391.1
54.2364,557.4
54.2411,245.1
54.2417,17.4
54.2462,299.8
54.2513,304
54.2536,392.7
54.2556,165.5
54.2627,137.9
54.269,336.8
54.2814,261.6
54.2929,262.2
54.2997,176.2
54.3038,16.6
54.3077,288.3
54.315,285.3
54.3201,15.9
54.3231,16.1
54.3499,120.3
54.3517,152.8
54.3637,18.6
54.3936,36.3
54.3943,204.9
54.4068,319.6
54.4084,200.5
54.4201,497.2
54.4207,216.4
54.4216,458.7
54.4257,307.2
54.4312,534.5
54.4366,216.7
54.4461,198.2
54.4473,190.1
54.4575,499.9
54.4646,262.9
54.4807,348.6
54.4857,680.8
54.505,268.9
54.5114,171.4
54.5152,18.8
54.5185,264.1
54.5312,425.3
54.5699,190.8
54.5775,206.8
54.5882,286.6
54.5924,357.1
54.6276,34.9
54.6302,185.7
54.6316,200.7
54.6416,15.6
54.6497,627.7
54.6646,114.5
54.6675,19.9
54.6739,175
54.6818,415.6
54.6837,365.4
54.7016,493.4
54.714,252.2
54.7187,301.1
54.727,201.3
54.7315,157
54.7344,591.6
54.7364,282
54.7524,17.4
54.7673,334.2
54.77,300.7
54.7837,182.7
54.8002,41.1
54.8225,627.7
54.8338,100.9
54.8367,32.3
54.8401,178.4
54.8406,261.4
54.8431,285.4
54.8685,16.9
54.8786,140.9
54.8802,146.3
54.8834,358.3
54.8855,313.1
54.8863,15.7
54.8927,16.4
54.8943,558.1
54.9008,322.4
54.904,414.1
54.9108,267.6
54.9235,203.2
54.93,445.6
54.9535,579.6
54.9575,18
54.9821,610.9
54.9839,300.6
55.0008,353.9
55.0194,154.4
55.0216,512.5
55.0271,18.1
55.0526,578.2
55.0859,662.9
55.0889,427.7
55.1037,149
55.1283,19.4
55.1565,147.2
55.1667,244.9
55.1746,20.6
55.1769,266.3
55.1775,473.6
55.1804,367.7
55.1986,474.5
55.226,332
55.2322,18.8
55.268,17.5
55.2862,160.7
55.2876,450.6
55.3059,263.5
55.3165,720.9
55.3321,387.8
55.3395,653.8
55.3451,114.4
55.3555,425.2
55.3597,19.3
55.3677,174.5
55.3817,277.7
55.4255,39.4
55.4303,154.5
55.4354,147.1
55.4437,591.2
55.4441,566.7
55.4469,161.5
55.4776,545.8
55.4886,237.9
55.4944,228.2
55.5179,406.8
55.5323,145.6
55.5364,402.2
55.5414,189.4
55.5536,153.4
55.568,349.9
55.5749,552.8
55.5901,311.9
55.5971,207.4
55.6131,380.1
55.6268,343.9
55.6547,237.7
55.6677,308.6
55.6688,260.9
55.6815,252.2
55.7017,220
55.7116,166.3
55.7212,516.9
55.7294,338.2
55.7561,550
55.7796,286.2
55.8005,164.9
55.8095,256.4
55.8111,191.5
55.8283,23.4
55.8365,15.9
55.8371,267.2
55.8722,139.7
55.8908,552.2
55.9294,220.7
55.9318,137.1
55.9334,154.2
55.9674,300.3
55.9728,17
55.9784,520.4
56.0028,198.9
56.0125,15.7
56.016,362.3
56.0233,125.3
56.0267,142.7
56.0415,143.9
56.051,23.8
56.0801,594.6
56.0823,339.2
56.0837,219.8
56.089,174.8
56.0965,111.2
56.1027,335.8
56.1056,391.1
56.1213,143
56.1278,309.2
56.1674,287
56.2226,139.7
56.2263,187.8
56.2324,177.6
56.2477,385
56.2507,23.4
56.2681,343
56.2716,155.1
56.2768,538.6
56.2917,170.7
56.2997,18.4
56.3014,300.1
56.3027,363.7
56.3218,238
56.3293,16.9
56.3471,16.1
56.357,303.5
56.3756,135.1
56.3963,148.2
56.4065,332.6
56.4183,325.4
56.4263,427.2
56.4447,17.6
56.463,399
56.4752,16
56.4787,292.2
56.4829,551.9
56.4843,144.7
56.4851,227.1
56.4898,333.6
56.5043,40.4
56.514,217
56.5248,233.5
56.5326,342
56.5386,183.2
56.5394,318.2
56.5421,17.6
56.5888,139.4
56.5995,488.6
56.601,264.3
56.6036,315
56.6321,224.2
56.6368,468.9
56.6385,359.2
56.6572,330.4
56.662,662.7
56.6993,283.3
56.7069,137.8
56.7338,15.7
56.7376,235
56.7478,300.9
56.7516,344.4
56.7726,236.5
56.7774,624.8
56.7953,15.3
56.7968,175.1
56.7978,309.8
56.8023,473.8
56.8348,253.8
56.8412,128
56.8721,403.2
56.884,275.6
56.9037,153.2
56.936,140.4
56.9372,19.3
56.9502,398.5
56.9642,307.1
56.9715,347.8
56.9728,331.4
56.974,412.7
56.9882,16.4
57.0171,117.5
57.0316,291.2
57.0358,350
57.0376,229
57.0486,170.7
57.059,365.1
57.0652,428.7
57.0715,188.3
57.0748,607.1
57.0914,504
57.0944,520.2
57.0974,15
57.1047,415.4
57.1207,17.5
57.1297,125.2
57.1474,15.8
57.1506,16.7
57.1636,16.6
57.1779,199.2
57.2008,227.6
57.2325,441.1
57.2476,218.3
57.2485,108.9
57.2577,274.8
57.273,247.5
57.2772,115.5
57.2836,199.9
57.2939,333
57.3035,18
57.3087,342
57.3203,109.5
57.3227,247.5
57.3508,128.1
57.3554,203
57.377,16.2
57.3802,225.6
57.3806,433.6
57.3988,19.9
57.4072,409.2
57.4121,294.4
57.4144,138.4
57.4521,351.5
57.4687,213.3
57.4827,118.4
57.4835,134.6
57.5033,491.7
57.5138,426.3
57.5251,486.5
57.5256,276.9
57.5276,443.1
57.5387,265.2
57.5396,608.7
57.5463,303.5
57.5492,417.4
57.6148,16.4
57.6408,194.6
57.642,505.1
57.6626,142.4
57.6711,557.1
57.6811,572.2
57.682,507
57.697,17
57.7011,17.4
57.7057,422.3
57.7211,18
57.7348,343.2
57.7366,163.3
57.7372,162.8
57.7403,169.2
57.7532,604.8
57.7642,206
57.7782,369
57.7811,366.6
57.7854,19
57.786,277.7
57.8165,276
57.8388,713.2
57.8448,14.5
57.8519,329.1
57.8535,406.9
57.8629,444.3
57.8934,279.6
57.9043,404.3
57.9052,416.6
57.9202,291
57.9586,145.3
57.9722,296.7
57.9733,238.7
57.9758,167
57.9982,162.6
57.9993,224.4
58.0329,173.7
58.042,177.6
58.0568,461
58.0585,313.5
58.0737,272.2
58.0808,276
58.0952,124.8
58.1206,36.9
58.1573,16.2
58.1584,194.2
58.1851,106.2
58.2066,414.9
58.231,160.6
58.2435,522.4
58.248,397.7
58.2656,19.3
58.268,179.4
58.2741,202
58.288,186.3
58.3016,644.5
58.3019,219.4
58.3154,311
58.3437,326.4
58.389,269
58.3942,179.1
58.3981,18.7
58.3993,138.1
58.4079,134.2
58.4227,323.7
58.4246,524.7
58.4274,282.6
58.4409,16.1
58.4648,480.9
58.4782,638.6
58.4867,205.6
58.4962,157
58.5132,372.5
58.5557,18.5
58.5648,281
58.568,561.9
58.5813,535.8
58.5829,285.1
58.5976,35.6
58.6079,344.1
58.6324,131.4
58.6329,162.4
58.642,164.4
58.6573,120.8
58.6585,438.9
58.6618,371
58.6738,298.6
58.6909,421.6
58.7056,172
58.7119,485.6
58.721,575.7
58.7217,348.3
58.7283,532.6
58.7376,15.9
58.738,514.9
58.7492,665.9
58.7519,134.4
58.7642,391.7
58.7809,16.7
58.7816,664.9
58.7905,421.7
58.8084,508.4
58.8188,304.5
58.828,274.9
58.841,17.2
58.8573,296.9
58.8586,263.1
58.8951,434.8
58.904,174.3
58.905,545.1
58.9259,141
58.9303,18.9
58.9409,406.3
58.9831,136.9
58.9848,345.1
58.9887,671.1
58.9951,143.2
58.9982,288.4
59.0081,17.6
59.0195,17.3
59.0366,342.3
59.0448,16.4
59.0638,580.5
59.0851,19
59.1055,168.4
59.1129,134.6
59.1193,149.3
59.1303,490.1
59.1329,312.8
59.1338,132.3
59.1356,129
59.1485,613.2
59.1501,18.7
59.154,598.6
59.1665,16.2
59.1697,169.3
59.1725,138.8
59.1781,244.4
59.1992,322.6
59.2005,400.2
59.2093,182
59.2157,503.2
59.2182,141.3
59.2458,16.2
59.2952,546.5
59.3099,35.6
59.3161,198.4
59.3264,199.3
59.3338,233.6
59.3355,503.3
59.3389,227.6
59.341,311.5
59.3437,140.8
59.3487,314.3
59.3494,18.9
59.3509,329.8
59.3524,148.7
59.3582,322
59.359,232.8
59.3602,304.9
59.3674,16.4
59.3888,434.9
59.3944,23.1
59.3972,485
59.4251,218.8
59.4328,135.9
59.4425,302.8
59.4985,478
59.5139,319.9
59.5326,307.8
59.5432,516.9
59.5526,186.5
59.5697,392.4
59.5818,443.8
59.5926,280.6
59.6194,307.4
59.6306,290.4
59.669,15.2
59.6758,149.5
59.6844,16.1
59.6909,150.7
59.698,155.4
59.7128,295
59.7154,211.8
59.7163,675.7
59.7173,317.6
59.7355,17.1
59.7447,159.3
59.7593,379.5
59.773,315.1
59.7743,17.6
59.7754,243.6
59.7823,177.2
59.7872,181.9
59.8015,344.3
59.8092,235
59.8115,17.1
59.8167,219.5
59.822,19.3
59.8262,311.2
59.8376,353.7
59.8421,143.4
59.8446,142.7
59.846,327.3
59.8496,364
59.8569,39.7
59.8607,312.3
59.8641,165
59.8656,603.1
59.8702,348.8
59.8745,267.4
59.882,114.3
59.8851,349.1
59.8919,411.4
59.9023,510
59.9062,387.4
59.9128,303.3
59.9146,128.3
59.9556,369.9
59.9632,400.9
59.9646,587.7
59.9721,15.4
59.9792,512.7
59.9907,19.2
59.9973,528.5
60.0216,208.4
60.0381,197.6
60.0423,242.1
60.053,274
60.0597,16.9
60.0669,254.8
60.0712,114.9
60.0725,236.6
60.0812,15.5
60.0843,374.6
60.0899,161.9
60.0997,19.8
60.1419,237.2
60.1434,538
60.1475,15.3
60.1596,19.3
60.1822,467.5
60.1831,15.8
60.2106,545.6
60.2134,403
60.2195,586.9
60.2503,163.4
60.2611,142.9
60.2641,166.6
60.2651,35.7
60.2952,517
60.3115,296.1
60.3138,421.6
60.3232,128
60.3255,341.3
60.3339,238.5
60.3349,296.5
60.3414,262.6
60.3416,313.9
60.3418,290.5
60.3422,17.5
60.3435,212.9
60.3488,425.6
60.3601,158.2
60.3748,18.8
60.3866,235.4
60.4044,360.7
60.4089,377
60.4194,804.6
60.4246,235
60.431,655.1
60.4683,16.7
60.4712,540.8
60.4714,558.7
60.4944,18.2
60.5002,219.8
60.5015,255.4
60.5025,557.7
60.5145,588
60.5836,248.7
60.6073,133.5
60.6164,164.4
60.62,630.1
60.6247,478
60.6276,336.2
60.6328,17.3
60.6425,182.8
60.6434,151.1
60.6447,616.1
60.6469,128
60.6557,161.7
60.6708,144
60.7089,17.7
60.7254,314.1
60.7347,181.9
60.7371,503
60.7392,472.5
60.7466,162.9
60.7506,322.5
60.7648,405.4
60.7692,16.9
60.7809,242.3
60.782,254.1
60.7898,553.7
60.7928,138.7
60.8053,598.3
60.8226,613.5
60.8288,298.4
60.8336,16.1
60.8345,551.6
60.8419,560.8
60.8438,18.2
60.8492,18
60.861,328.2
60.8621,391.4
60.8922,653.6
60.8958,240.6
60.9015,280.3
60.9127,254.6
60.9187,290.7
60.9306,18.6
60.9396,292.1
60.9443,234
60.9554,17.2
60.9644,334.5
60.9895,20
60.9932,209.8
61.0028,318.2
61.007,230.1
61.0123,453.3
61.0196,514.5
61.0608,389.1
61.0696,265.6
61.0874,313
61.0939,123.9
61.1119,563.6
61.1571,473.2
61.2643,19.4
61.2702,224.1
61.2788,571.1
61.3026,16.2
61.3088,150.8
61.3185,34.3
61.3221,356.8
61.3424,267.3
61.3596,348.1
61.3696,37.4
61.3784,202.2
61.3854,29.5
61.3983,20.4
61.3987,665.7
61.4091,214.3
61.422,268.6
61.4364,301.5
61.4448,216.6
61.4591,255.8
61.4677,621.9
61.4783,17.6
61.4816,455.4
61.4916,221.4
61.5001,15.5
61.5054,424.6
61.5062,186
61.5082,205.2
61.5548,565
61.5619,195.6
61.5637,15.4
61.5891,352.5
61.6061,286.3
61.6083,305.6
61.6293,19.3
61.6422,690.2
61.6493,360.9
61.6571,202.4
61.666,229.1
61.695,470.5
61.7044,460
61.7053,396.8
61.7191,649.2
61.7203,374.9
61.7528,17.9
61.7555,112
61.7654,319.7
61.7778,302
61.7791,194.4
61.7943,219.4
61.8123,16.4
61.8152,414.8
61.8168,734.6
61.8283,330.6
61.8316,230
61.8499,136.5
61.8783,392.3
61.8945,144.3
61.9093,161.1
61.9116,314.7
61.9375,156.7
61.9585,21.6
61.9679,317.7
61.9701,461.9
61.9712,16.7
61.978,257.5
61.994,158.2
62.0191,120.1
62.0201,330.4
62.0282,145.3
62.0451,122.5
62.0492,352.6
62.0682,296.4
62.0706,509.7
62.0985,175.6
62.1072,279.1
62.1152,314.3
62.1341,270.8
62.1381,147.9
62.1503,173.2
62.1573,203.8
62.1596,17.5
62.1823,150
62.1866,476.6
62.187,434.6
62.2003,171.5
62.2027,16.5
62.2528,209.7
62.2653,15.1
62.2698,562.4
62.2715,15.4
62.2797,401.6
62.2836,525.8
62.2904,352.1
62.2955,435.5
62.3245,165.3
62.3346,21.5
62.3505,335.7
62.3983,169.9
62.4046,427.1
62.4236,305.6
62.4301,152
62.4408,194.6
62.4518,216.1
62.457,148.8
62.4613,149.1
62.47,327.1
62.4722,335.2
62.4741,165.9
62.5044,113.1
62.5532,18.9
62.5558,460.7
62.5609,145.3
62.5728,615.3
62.5835,344.6
62.5955,352.3
62.6016,18.8
62.6026,219.3
62.6189,274
62.6228,958.2
62.628,37.3
62.645,606.6
62.6494,173.6
62.6599,143.2
62.663,300.9
62.6648,567.4
62.72,353.9
62.7226,286.7
62.7369,250.3
62.7769,699.2
62.784,155.7
62.7858,238.2
62.7945,715.7
62.7986,16.4
62.81,487
62.8307,549.2
62.8479,17.9
62.8597,381.6
62.8872,632.6
62.9195,269.4
62.9316,153.8
62.9359,299.4
62.9457,168.5
62.9556,172
62.9873,123.5
62.9936,403
63.0034,422.5
63.0058,433
63.033,291.7
63.0859,522.3
63.1229,234.5
63.1361,282.3
63.1406,212
63.142,295.3
63.1615,16.5
63.1645,370.3
63.1743,136.9
63.1824,516
63.1914,163.5
63.2037,179.3
63.2289,137.4
63.2363,137.1
63.2534,601.2
63.2539,358.9
63.2581,365.7
63.2913,340.2
63.3173,614.9
63.3192,175.2
63.3421,246.8
63.3464,465.2
63.348,612.8
63.3651,35.8
63.4054,486
63.4101,632.6
63.4129,635.9
63.4184,17.6
63.4193,166.7
63.4394,363.1
63.4414,580
63.4605,191.3
63.4641,640.6
63.4858,371.7
63.4885,217
63.4932,299.4
63.5063,569.9
63.5207,640.9
63.5212,486.9
63.5435,423.4
63.5447,269.7
63.5601,581.5
63.5695,394.1
63.579,137
63.6084,287.4
63.6134,17.9
63.6206,668.3
63.622,326.5
63.628,303.3
63.6541,20.3
63.6559,145.4
63.6652,42.6
63.6663,373.4
63.68,232.1
63.6946,20.6
63.7269,203.1
63.7277,213.2
63.7333,20.2
63.7646,257.2
63.7746,16.7
63.7875,17.6
63.799,202.8
63.8011,199.1
63.81,395.4
63.825,408.9
63.8257,212
63.8323,297.8
63.8756,155.6
63.8879,216.5
63.8928,623.9
63.9019,226.8
63.9397,137.2
63.9417,133.5
63.9463,23.7
63.9597,228.4
63.9616,39.5
63.9737,140.1
63.9749,410.7
63.9932,422.1
64.0051,18.8
64.0205,476
64.038,19.6
64.0643,18.5
64.0701,17.5
64.0702,17
64.0976,39.1
64.1344,257.2
64.1679,287.9
64.1744,576.8
64.2049,556.6
64.2106,457.8
64.2171,105.1
64.2881,154.6
64.3048,335.4
64.3119,272.9
64.3247,133.8
64.3962,419.2
64.41,19
64.4124,18.2
64.4319,346.6
64.4459,161.8
64.4637,183.1
64.4691,17.4
64.4741,200.6
64.4837,300.2
64.4891,447
64.4938,17.2
64.5035,274.6
64.5061,146.4
64.5089,436.1
64.5094,134.3
64.5195,180.9
64.5649,565.6
64.5666,285
64.5717,542.8
64.6197,386.8
64.6579,141.6
64.6637,401.9
64.6747,194.4
64.6817,254.5
64.7048,404
64.7196,217.8
64.7346,350.4
64.7497,531.6
64.7597,372
64.809,382.5
64.8171,246.7
64.8241,380.6
64.8446,705.9
64.8796,199.8
64.8875,171.8
64.8905,291.5
64.8917,19.8
64.9253,18
64.9431,423.9
64.9443,17.6
64.9621,573.4
64.9628,133.1
64.9689,196.9
64.9765,762.9
64.9887,20.9
64.9978,206.1
65.0109,19.1
65.0173,317
65.0237,107.4
65.0257,287.9
65.0354,222.2
65.0531,154.2
65.0595,605.1
65.0717,197
65.0775,192.6
65.0809,233.6
65.1125,306.8
65.1361,162.4
65.142,333.4
65.1508,119.9
65.1638,294.4
65.1715,35.2
65.1923,562.3
65.2031,311.6
65.2127,130.7
65.2259,212.2
65.2289,201.7
65.2645,451.5
65.2664,191.2
65.2689,499.6
65.2936,326
65.3201,363.9
65.3222,480.4
65.324,17.2
65.3412,20.6
65.3442,237.2
65.3454,378.1
65.3486,231.1
65.35,247.2
65.3621,22.5
65.3757,185.9
65.3783,201.9
65.3871,117.6
65.3993,710.5
65.4224,462.8
65.4277,297
65.4376,402.6
65.4403,599.9
65.4599,18.4
65.4822,141.2
65.4874,173.9
65.4914,276.5
65.4997,49.5
65.5048,238
65.5081,530.2
65.5083,495.2
65.5085,456.4
65.5181,233
65.5358,586.2
65.5519,238.7
65.5539,252.3
65.5585,118.8
65.5663,17.6
65.5961,142.5
65.6037,243.8
65.6074,16.5
65.6271,18.1
65.6578,159.4
65.6611,522.8
65.6885,645.2
65.7114,575.9
65.741,366.9
65.7445,205.8
65.7531,222.4
65.7629,218.7
65.7656,20.2
65.7701,471.1
65.777,192.5
65.8197,203.9
65.8225,17.4
65.8296,18.5
65.8395,210.6
65.8447,229.1
65.8493,624.2
65.8694,409
65.8824,201.9
65.9269,254.7
65.9341,16.7
65.9419,631.9
65.9554,538.3
65.9599,16.5
65.9896,426.5
65.9909,224.1
66.0163,450.9
66.0203,390.6
66.0681,507.6
66.0751,529.6
66.0773,570.5
66.0784,147.6
66.0908,20.9
66.0928,169
66.0944,179.9
66.1196,143.6
66.1238,321.5
66.1303,293.1
66.1704,36.9
66.1769,206.4
66.1995,18.6
66.2195,266.7
66.225,131.4
66.2278,416.2
66.2321,313.8
66.2872,596.5
66.2986,148.3
66.2991,478.7
66.3111,506.8
66.3157,574.6
66.325,464.9
66.3267,413.2
66.3322,176
66.3478,608.3
66.38,121.8
66.3866,18.7
66.3947,17.2
66.3976,288.9
66.4288,34.1
66.4813,179.6
66.4838,433.1
66.4871,400.6
66.4997,18.3
66.5174,21.3
66.5261,21.7
66.5345,401.9
66.5371,392.7
66.5832,183.7
66.5911,19.5
66.6001,494.5
66.6144,166.4
66.6296,355.1
66.6326,164.1
66.6365,282.9
66.6383,123.1
66.6421,161.6
66.6633,115
66.6643,19.5
66.6764,922.9
66.6789,137.4
66.6901,213.1
66.6905,355.1
66.6955,259.3
66.6979,425.2
66.7223,136.8
66.7393,513.9
66.7516,577
66.7608,581
66.7733,751.3
66.7897,377.3
66.7948,159.7
66.8087,605.1
66.8094,475.1
66.8311,165.9
66.8487,369.5
66.8597,504.6
66.8694,18
66.8837,156.6
66.9208,207.7
66.9316,286.9
66.9382,200.1
66.9452,168.6
66.9531,207.6
66.9548,343.8
66.9634,355.5
66.9644,168.6
66.9983,192.2
67.0033,191.4
67.0073,422.7
67.0114,592.1
67.0163,450.6
67.0195,437.2
67.0242,216.1
67.0426,16.6
67.0538,28.5
67.0591,17
67.0605,679.2
67.064,177.7
67.067,18.6
67.0718,15
67.0825,494.3
67.0833,20.3
67.0852,672.8
67.0863,245.8
67.0987,147
67.1204,416.3
67.1753,15.5
67.1785,40.3
67.1801,213.9
67.1899,190.5
67.1991,319.7
67.2043,183.6
67.2222,18.9
67.2272,240.8
67.2298,21.7
67.2345,341.2
67.2586,398.3
67.2659,277
67.2803,14.8
67.2839,17.8
67.2878,841.1
67.3206,251.7
67.3364,34.4
67.3369,302.4
67.3382,234
67.3388,16.9
67.3396,240.5
67.3437,605
67.3579,40.3
67.3626,214.9
67.3651,343.2
67.3744,823
67.3812,618.3
67.3838,190.2
67.3989,306.5
67.4221,149.3
67.4532,210.9
67.4553,195
67.4624,172.7
67.469,291.5
67.4714,356.8
67.4972,260.4
67.5235,527.1
67.5371,560.9
67.542,432.1
67.5826,529.6
67.5917,202.5
67.6049,255.8
67.6173,307.2
67.6271,152.7
67.6437,118.5
67.6711,137.9
67.7128,194.7
67.7353,698.6
67.7414,237
67.7502,190.2
67.7699,307.2
67.7915,531.2
67.8019,185.6
67.8293,824.6
67.8652,198.7
67.8729,16.2
67.8802,151.5
67.8811,452
67.902,18.3
67.9048,251.9
67.9114,435.4
67.9334,256
67.9342,394.9
67.9431,402
68.0047,271.6
68.0139,342.6
68.0408,557.3
68.0625,157.1
68.0743,177.2
68.0776,310.1
68.09,598.5
68.0956,148.5
68.0981,150.5
68.111,244.8
68.112,261.2
68.1243,167.2
68.1385,202.6
68.1403,20.1
68.1442,485
68.1512,450.9
68.1541,297.6
68.1565,317.3
68.1674,306.1
68.1762,250.3
68.182,231.6
68.1836,166.5
68.2035,19.7
68.2221,156.3
68.2343,15.3
68.2473,157
68.2563,146.9
68.2576,175.6
68.2835,36.5
68.2987,189.7
68.3055,20
68.306,146.1
68.3456,19.8
68.3467,340.1
68.3881,149.6
68.3965,18.8
68.4056,324.3
68.4126,143.6
68.4196,386.1
68.4327,547.6
68.437,373.9
68.4412,491.8
68.4489,158
68.4514,359.3
68.4538,281.8
68.4622,273.6
68.5037,282.9
68.5061,153.8
68.5184,456.3
68.5566,313.1
68.5613,148.3
68.562,161
68.5907,334.9
68.6003,20.1
68.6085,36.2
68.6168,216.7
68.6436,171.2
68.6662,226
68.6688,278
68.7095,220.2
68.7125,436.2
68.7396,144.3
68.767,376.3
68.7812,286.3
68.7921,588.8
68.8077,298.9
68.8143,155
68.8499,291.8
68.8537,531.9
68.862,445.1
68.8698,138
68.8746,468.1
68.8942,370.3
68.9155,685.6
68.9416,42
68.9433,242.3
68.9578,20
68.962,139.9
68.9732,174.6
68.9776,16.4
69.0005,204.7
69.0291,19.4
69.0419,35.1
69.0563,231.8
69.0625,486.1
69.0647,473.7
69.0683,243.4
69.0695,18
69.0775,600.9
69.0945,256.5
69.0985,17.6
69.1039,19.5
69.1053,176.7
69.1336,161.3
69.14,229.2
69.1404,435.5
69.1595,512.4
69.1631,283.8
69.1672,154.4
69.1679,428
69.2065,415.9
69.2077,176.7
69.2138,317
69.229,16.5
69.2723,17.5
69.3508,21.2
69.3798,208.3
69.3953,221.6
69.3978,607
69.4205,18.7
69.4344,21.2
69.4703,285.3
69.471,492.3
69.4781,408.6
69.4898,196.1
69.4945,551.7
69.499,16.9
69.5052,17.8
69.5143,376.9
69.5181,263.3
69.5292,367.9
69.5467,548.7
69.5565,527
69.5715,146.8
69.5733,18.8
69.5886,145.1
69.606,153.9
69.6102,517.9
69.6147,363.6
69.6295,265.4
69.6359,245.7
69.6539,603.1
69.6587,177.7
69.6711,293
69.7021,289.5
69.7024,286.4
69.7065,303.4
69.7124,214.6
69.7141,202.8
69.7211,903.1
69.725,153.3
69.735,339.7
69.7366,312.5
69.7375,161.7
69.7388,378.5
69.7411,154.2
69.7441,526.4
69.7585,18
69.764,18.5
69.8042,509.1
69.811,566.1
69.8158,178
69.8359,331.1
69.843,17.2
69.8456,215.5
69.858,218.5
69.8643,327.8
69.8759,284.4
69.9197,184.6
69.9449,279.7
69.9494,241.7
69.9507,189.1
69.9551,163.2
69.9636,135.9
69.971,327.9
69.9724,250.3
69.9775,337
69.9787,184.5
69.9795,306.3
69.9831,472.2
70.0009,242.7
70.0062,396.3
70.0081,135.8
70.0107,487.4
70.0366,273.7
70.0544,308.6
70.0647,82.3
70.0716,322.5
70.0798,190.4
70.0873,399.5
70.0956,209.1
70.0998,229.7
70.1249,363.1
70.1532,558
70.159,173.6
70.1819,830.7
70.1916,288.3
70.2451,390.4
70.2494,264.6
70.2861,208.5
70.2902,18.8
70.3095,18
70.3493,600.9
70.3643,307.3
70.3769,162.1
70.3787,18.9
70.3793,15
70.3872,179.3
70.4031,15.5
70.4038,332.6
70.4057,158.7
70.4079,511
70.416,239.2
70.4176,292.1
70.4333,415.8
70.4349,42.1
70.4395,175.5
70.4866,329.5
70.4973,407.3
70.5012,517.6
70.51,178.9
70.5178,436.5
70.5291,357.6
70.5377,140.4
70.5501,413.1
70.5582,20
70.5713,158.1
70.5792,140.2
70.5818,223.9
70.5824,343.9
70.5909,125
70.5998,17.4
70.6105,250.7
70.6235,378.2
70.6653,416
70.6693,152.1
70.678,253.3
70.7171,17
70.7396,333.3
70.7717,311.1
70.7747,181.9
70.7918,530.9
70.8104,499.6
70.8214,17.4
70.8413,19.9
70.8685,182.9
70.8834,173.1
70.8874,621.4
70.8942,20.9
70.9043,181.6
70.987,330.8
70.9985,375.7
71.0089,205
71.0133,156.5
71.0153,546.6
71.0566,220.1
71.0733,303.7
71.0748,228.3
71.0955,145.3
71.1221,155.9
71.1225,228.2
71.1409,366.9
71.1469,273.3
71.1532,545.6
71.1643,186.2
71.1655,139.6
71.1688,36
71.1865,61.6
71.1876,378.1
71.1946,128.7
71.2067,159.6
71.2208,483.2
71.2379,420.6
71.247,692.1
71.2605,289.2
71.2929,164.9
71.3158,663.6
71.3171,148.7
71.3238,165.7
71.3287,330.3
71.3302,152.8
71.3437,205
71.3509,474.6
71.3527,158.9
71.3597,315.4
71.3681,157.2
71.3913,17.8
71.4013,175.3
71.4253,139.5
71.4562,622.9
71.4713,228.4
71.4816,299.7
71.4855,183.4
71.4861,586
71.4934,541.8
71.4963,610.2
71.5047,112.1
71.5321,619.8
71.5463,276.7
71.5546,515.7
71.5608,485.4
71.5756,148.2
71.5881,587.6
71.6018,208.6
71.6058,337.5
71.6137,16.7
71.6474,240.9
71.6498,190.5
71.6598,156.9
71.6796,329.1
71.7085,140.4
71.7106,292
71.713,16.9
71.7294,248.5
71.7385,171.7
71.7548,15.6
71.7843,258.1
71.8021,406.4
71.8089,35.1
71.8287,280
71.8352,241.4
71.8404,220.9
71.8444,204.1
71.8493,19.8
71.8715,288.2
71.8807,345.2
71.9016,327.6
71.9136,485.6
71.919,163.4
71.9226,384.1
71.932,252.4
71.9511,645.5
71.9543,15.2
71.9618,626
71.9701,424
71.9751,422
71.9767,251.3
71.9793,339
71.9932,259.7
71.9992,18.1
72.011,17.7
72.0264,206.1
72.0474,228.7
72.0703,231.2
72.0799,503.4
72.0805,1578.3
72.0894,165.2
72.1157,333.6
72.1315,131.2
72.1531,580
72.1621,219.4
72.1681,18.4
72.1703,674.2
72.1734,315.1
72.1786,21.7
72.2228,1474
72.2234,512.8
72.2238,585.8
72.2253,758.9
72.2262,717.1
72.2267,621
72.227,516.1
72.228,1493.7
72.2285,3029.3
72.2294,3622.4
72.2304,2985.9
72.2313,2998.6
72.2317,2632.4
72.2331,2735.5
72.2336,3462.2
72.2348,696
72.2361,3614
72.2366,2381.4
72.2378,5941.5
72.2387,5480.2
72.2407,1703.8
72.2412,1390.9
72.2434,926.6
72.2442,789.5
72.2455,896.2
72.246,1193.5
72.2472,881.1
72.2477,415.2
72.2488,962.8
72.25,557.6
72.2513,596
72.2518,365.2
72.2521,370.2
72.2526,284.7
72.2533,478.4
72.2543,118.9
72.2553,23.9
72.2567,17.9
72.2573,18.5
72.2589,204.1
72.2602,21.4
72.2716,255.6
72.2821,438.2
72.3127,464.3
72.3191,827.1
72.34,183.8
72.3539,579
72.376,450.7
72.3852,443.3
72.3914,343.3
72.3954,336.9
72.4135,513.1
72.4235,183.7
72.4364,165
72.4641,204.7
72.4904,199.5
72.4998,202.8
72.5024,242.5
72.5222,289.8
72.5228,434.2
72.5238,148.1
72.5325,140.2
72.5343,292.4
72.5676,386
72.5785,144.9
72.6151,164.6
72.6203,409
72.6266,229.9
72.6384,292.1
72.641,316
72.68,722
72.7009,356.6
72.705,200.4
72.7195,568.7
72.7314,212.7
72.7631,286.2
72.7638,379.5
72.7705,151
72.7729,331.8
72.7769,616.1
72.7796,16.9
72.7829,213.8
72.8037,237.3
72.8086,146.8
72.8359,155
72.8388,212
72.8859,15.3
72.8862,22
72.8869,663.9
72.8939,17.7
72.9021,244.5
72.9047,497.4
72.9368,804.3
72.9393,185.8
72.9522,388.7
72.9628,828.9
72.9642,154.3
72.9689,515.2
72.9838,362.9
72.9943,152.4
72.9964,483.4
73.0037,17.2
73.0081,195.2
73.0259,396.4
73.0361,762.2
73.0465,21.3
73.0654,303.8
73.0832,544.9
73.0863,367.3
73.1218,146.5
73.1279,648
73.1294,349.2
73.1505,541
73.16,158.2
73.1958,487.3
73.1998,718.9
73.263,164.2
73.2785,16.2
73.3343,496.4
73.338,407.2
73.3507,610.3
73.3962,150
73.401,692.6
73.4016,17.4
73.4061,186.1
73.4087,374.4
73.4119,304.2
73.4248,347.5
73.4377,315.2
73.4405,257.8
73.4454,154.8
73.4507,375
73.452,304.9
73.4763,307.4
73.4845,250.4
73.4908,208.1
73.4993,397.5
73.5046,17.2
73.5095,191.2
73.5235,501.2
73.5305,15.8
73.5414,138.7
73.5466,225.4
73.549,182.4
73.5516,159.9
73.5603,280
73.5647,504
73.579,17
73.5795,139
73.6045,488.2
73.6213,574.1
73.6401,16.2
73.6575,223.2
73.6718,211.1
73.6816,394.2
73.7009,16.9
73.7094,187.8
73.7326,193.1
73.754,319.3
73.7749,228.1
73.7812,239
73.7913,141.4
73.8036,299.2
73.8062,303.2
73.8183,19.7
73.8391,261.6
73.8402,621.9
73.8432,258.8
73.8471,18.2
73.8763,305.3
73.8786,17.8
73.8799,16.6
73.8846,17.2
73.9021,369.2
73.9213,158.9
73.924,334.4
73.9295,282.5
73.9642,146.6
73.9692,152
73.9827,351.8
73.9848,493.1
73.9876,335.7
73.9893,353
74.0264,158
74.0324,18.6
74.048,281
74.0597,152
74.0828,152.9
74.0894,145.9
74.1069,156.6
74.1155,182.8
74.2199,217.4
74.2226,303.3
74.2232,38.6
74.2396,451.6
74.2458,18.3
74.2801,574.2
74.2833,223.4
74.312,221.9
74.3411,322.8
74.3426,251.7
74.3464,279.6
74.3582,383.9
74.4011,17.4
74.4029,351.2
74.4137,16.4
74.4239,18.7
74.4308,410.6
74.4496,19.3
74.4687,168.3
74.4704,334
74.4719,222.4
74.4722,247.7
74.4766,369.9
74.4821,500.1
74.4833,338.8
74.4845,15.3
74.49,165.1
74.499,149.4
74.5639,447.1
74.5721,352.6
74.5789,426
74.5863,266.6
74.5912,271
74.5946,841.5
74.6033,17.2
74.638,755.5
74.6651,567.8
74.6719,216.2
74.6726,20.5
74.6753,20.9
74.6828,184.3
74.7024,301.5
74.7158,362.1
74.7216,446.9
74.7371,248.9
74.7489,277.8
74.7685,174.6
74.7917,17.2
74.8378,16.6
74.8465,395.9
74.8681,17.8
74.8773,155.7
74.9041,279.7
74.9272,219.5
74.9408,145.4
74.9662,472
75.0193,112.4
75.0478,308
75.0683,17
75.0713,688.9
75.0879,217.8
75.1158,327.9
75.1243,812.3
75.1259,277.3
75.1351,176.5
75.1483,368
75.1563,42
75.1882,505.2
75.1976,19
75.2154,378.1
75.2476,319.5
75.2574,19.4
75.2607,320.3
75.271,300.5
75.2838,296.9
75.2971,157.9
75.299,184.6
75.3111,19.7
75.3225,194.3
75.3366,259.7
75.371,133.6
75.3768,697.6
75.3949,203
75.4108,220.4
75.4517,138.7
75.4562,188.7
75.4889,17
75.4998,319.1
75.5022,327.8
75.5218,371.3
75.5225,148.5
75.5253,397.4
75.5355,119.3
75.5451,307.1
75.5475,481.4
75.5494,142.9
75.6122,447.4
75.6383,362.3
75.6586,157.2
75.662,222.6
75.669,147.6
75.6934,322.6
75.7008,179.6
75.7388,18.8
75.7406,339.3
75.7409,330.7
75.7831,306.1
75.8058,296.5
75.8242,362.2
75.8321,18.7
75.853,212.5
75.8541,159.7
75.8651,197.1
75.898,214.1
75.9012,240
75.9025,50.7
75.9043,161.4
75.909,344.4
75.9207,296.9
75.924,247.8
75.9402,20.7
75.9409,577
75.9793,369.4
75.9891,489.5
76.0579,445.1
76.0649,161.6
76.0802,151.2
76.0819,380.9
76.0887,754
76.1105,557.7
76.1149,157.9
76.1337,304.3
76.1829,19.9
76.1895,262
76.2173,351.3
76.2244,291.4
76.2377,286.8
76.2684,151.1
76.2795,166.2
76.2943,430
76.3076,530.1
76.3096,238.3
76.3157,201.1
76.3406,142.8
76.3429,225.4
76.3827,373.6
76.3894,185.6
76.4094,160.3
76.4231,16.8
76.4381,436.6
76.4716,386.5
76.4986,194.5
76.5033,21.1
76.539,134.3
76.5406,470.3
76.5423,149.4
76.5479,246.8
76.5765,39.6
76.5852,559.5
76.5917,20.6
76.6073,389.6
76.6132,501.4
76.6218,700.9
76.6254,317.1
76.6315,558.1
76.6593,152.6
76.6797,409.2
76.7041,199.9
76.7129,22.6
76.7535,254.8
76.7646,485
76.7847,346.2
76.7931,364.1
76.8013,129.4
76.8196,268
76.822,246.5
76.8558,165
76.8573,302
76.8613,163.4
76.8896,354.9
76.9146,163.4
76.9362,214.6
76.9645,316.4
76.9812,18
77.0079,216.9
77.0304,294
77.035,489.3
77.0382,97960.9
77.0589,309.5
77.074,349.1
77.0847,325.8
77.0956,705.9
77.0968,494.7
77.1084,16.8
77.1118,16.7
77.1562,187
77.1767,16.5
77.208,138.7
77.2524,197.6
77.2598,149.6
77.2926,533.1
77.2938,159
77.3082,280.2
77.3451,168.9
77.3597,512.9
77.3693,17.6
77.4521,211.2
77.458,241.7
77.4615,136.7
77.4669,300.3
77.4705,46.3
77.4728,185.9
77.4893,721.3
77.4931,252.5
77.5033,592.4
77.5236,156.5
77.5269,258.8
77.5373,186.1
77.5387,341.7
77.5571,149.4
77.5648,535.3
77.5665,141.6
77.568,19.5
77.5737,379.4
77.581,144.9
77.5845,202.8
77.62,158.1
77.6205,145.6
77.6304,16.7
77.6369,484.3
77.6561,19.5
77.6636,242
77.6868,315.2
77.6915,200.2
77.698,661.3
77.7165,300.5
77.7542,381.3
77.7654,147.7
77.7661,131.5
77.7699,192.5
77.7735,36.1
77.774,40.7
77.8007,37.6
77.8285,353
77.8299,309.6
77.8424,230.8
77.8513,138.4
77.8524,148.5
77.8579,379.4
77.8969,301
77.905,451.6
77.9259,154.7
77.9373,263.7
77.9433,15.5
77.956,339.7
77.959,224.5
77.978,207.7
78.0064,521.1
78.0152,233.9
78.0191,344.9
78.0327,240.2
78.0348,498.2
78.0391,21.1
78.0416,2996.4
78.046,19.4
78.0653,202.2
78.1219,745.7
78.1321,248.8
78.1638,613.6
78.1693,220.7
78.2058,219.1
78.2091,320.5
78.2188,37.2
78.2767,211.2
78.2987,445.6
78.3011,18.1
78.3042,343.8
78.3069,587.5
78.312,223.1
78.3157,138.9
78.383,249.3
78.3919,16.9
78.3973,185.4
78.3986,245.2
78.4181,661
78.4307,655.3
78.4831,18
78.4849,21.9
78.5069,165.6
78.5103,507
78.5273,167.2
78.5388,249
78.5398,19.7
78.5535,449.1
78.5641,241.4
78.5654,164.6
78.6133,344
78.6326,164.4
78.6622,16.8
78.6823,523.3
78.6862,313.8
78.706,384.6
78.7253,281
78.7307,201.6
78.738,458.7
78.7582,334.1
78.7669,474.8
78.7757,392.6
78.7781,445.2
78.8136,291.8
78.8162,17.9
78.8178,16.4
78.837,531
78.8441,17.5
78.8636,690.8
78.8888,168.2
78.8917,408.3
78.9152,159.1
78.9384,137
78.9551,135.8
78.9943,238.3
79.0459,222.7
79.0517,225.4
79.0539,996.2
79.0676,185.6
79.0701,467.1
79.0734,177.3
79.0808,352.7
79.1101,16.8
79.1192,184.9
79.1321,492.5
79.133,380.8
79.1472,227
79.1968,303.6
79.2132,472.8
79.2239,510.7
79.2545,168.8
79.2619,260.9
79.2706,643.9
79.2885,16.4
79.2981,199.8
79.3008,148.7
79.3458,452.2
79.3562,287.9
79.3669,407.3
79.3909,161.3
79.4201,548.9
79.4308,45.8
79.4329,437.1
79.4345,225.8
79.4365,434.8
79.4393,355.2
79.4627,18.7
79.4693,20.1
79.4737,156.9
79.5071,380.1
79.521,17.3
79.5414,317.9
79.5676,206.4
79.5786,150.3
79.5842,593.6
79.5962,379.5
79.6001,193.1
79.605,289.2
79.6313,156.2
79.6522,251.6
79.6549,717.4
79.656,469.2
79.6743,200.4
79.6934,515.7
79.7219,192.2
79.7236,549.5
79.7288,22.3
79.7315,19.4
79.7592,340.1
79.7923,285.1
79.7935,586.2
79.8178,351.5
79.8263,425.1
79.8295,368.5
79.8311,199.9
79.8408,22
79.8435,455.3
79.8554,391.3
79.8858,312.2
79.9011,690.8
79.9166,504.8
79.9566,561.7
79.962,221.2
79.963,563.8
79.9639,462.8
79.9699,391.4
79.9797,228.9
79.9919,390.7
80.0072,214.8
80.0234,416.5
80.049,20.9
80.0558,706.6
80.0618,184.9
80.0684,16.3
80.0767,163.7
80.0814,369.9
80.0909,129.8
80.0961,470.5
80.1454,492.6
80.1687,140.7
80.1862,232.6
80.1879,164
80.1893,234.3
80.1931,299
80.1944,524.1
80.2058,248.8
80.2072,159.8
80.2082,270.4
80.2114,15.9
80.2611,18.5
80.2685,297.3
80.2744,388.7
80.2796,217.6
80.2914,318.2
80.2926,489.7
80.3024,16.2
80.3446,525.8
80.3533,155.2
80.3557,149.3
80.3619,211.3
80.3728,713.7
80.3805,202
80.4107,287.1
80.4471,143.4
80.4524,158.2
80.467,146.8
80.5136,139.9
80.5377,153.2
80.5408,352.3
80.5684,336.2
80.5732,150.4
80.5787,359.3
80.5916,197.3
80.5929,182.9
80.5988,134.1
80.6011,543.5
80.6108,274.8
80.6278,225.1
80.6496,17.8
80.6766,16.9
80.6776,209.3
80.697,174.1
80.7112,262.9
80.7237,784.1
80.7256,17.7
80.8018,167.4
80.8095,159.2
80.8273,361.7
80.9063,188.9
80.9475,34011
80.9709,279.4
80.9834,118.5
81.0227,173.3
81.0497,191.6
81.0534,395.2
81.0696,717.1
81.0879,596.6
81.0989,415.9
81.1065,163.9
81.1216,317
81.1368,575.5
81.1415,484.4
81.1629,713
81.1671,159
81.1745,466.3
81.1752,461.2
81.176,649.7
81.177,888.6
81.1787,699
81.18,339.6
81.1807,221
81.1834,642.6
81.1843,299.2
81.2178,463.2
81.2226,265.5
81.2436,170.8
81.2469,736
81.2761,263.2
81.2818,166.3
81.2938,306.8
81.3163,243.3
81.3254,19.1
81.3452,173.6
81.3992,151.5
81.4082,252.5
81.4112,462.8
81.4295,337.9
81.433,431.7
81.4348,281.4
81.4503,328.8
81.4541,252.1
81.4582,16.4
81.4809,282.5
81.4984,358.4
81.5197,155.3
81.5234,18.2
81.5352,371.2
81.5658,640.4
81.5824,337.7
81.5847,141.1
81.614,152.9
81.6287,679.2
81.6804,160.3
81.7021,550
81.705,198.6
81.7286,137.7
81.7375,287.9
81.7603,291.9
81.7934,165.2
81.7987,698
81.8236,275.6
81.8386,16.3
81.8447,321.1
81.8758,149
81.8832,179
81.8858,141.5
81.8902,319.5
81.892,158.7
81.9154,150.1
81.9448,367.4
81.9458,269.7
81.9571,253.3
81.962,440.5
81.9682,190.4
81.9739,535.4
81.9977,154.7
81.9985,741.4
82.0225,160.5
82.0287,221.2
82.0722,24.4
82.1048,337
82.1052,311.3
82.1205,364.2
82.1425,508.1
82.1607,625.6
82.1947,297.5
82.2093,644.7
82.2174,344.2
82.2182,16.6
82.2547,349.5
82.2616,520.4
82.2642,349.1
82.2853,17.7
82.2905,172.4
82.3516,19.2
82.3617,17.3
82.3619,16.9
82.4374,248.8
82.4406,265.9
82.4533,19.6
82.4777,721
82.4972,284.5
82.5101,144.8
82.5428,364.1
82.5482,20.2
82.5653,18.2
82.5824,250.9
82.5831,337.1
82.6403,605.7
82.6585,207.9
82.6664,784.8
82.685,19.2
82.6878,301.4
82.6885,124.2
82.6967,615.7
82.7242,19.8
82.7351,36.1
82.739,35.9
82.7408,17.5
82.7484,157.3
82.7601,842.7
82.7612,585.7
82.7673,358.6
82.7739,149.4
82.7844,457.3
82.7958,309.2
82.8394,514
82.8446,264.4
82.8497,413.4
82.8513,18.6
82.8563,337
82.8663,178.9
82.8765,303.1
82.8861,447.1
82.9312,192.1
82.9396,16.2
82.9446,10287.9
82.9756,588.8
82.9789,593.3
83.0091,339.5
83.0097,148.2
83.0213,142.9
83.023,268.8
83.0265,249.6
83.0318,490.5
83.0467,347.7
83.061,210.1
83.0811,18
83.0852,44.8
83.0954,693.6
83.1001,207.8
83.1552,151.3
83.2117,537.9
83.2153,237.3
83.247,312.4
83.2554,496.3
83.2599,17.6
83.2708,169.5
83.2745,164.9
83.2818,140.8
83.2851,153.7
83.3103,523.6
83.3179,16
83.3505,161.2
83.3529,279
83.3589,167.1
83.36,20.3
83.3624,158.1
83.3644,589.6
83.3719,171.9
83.3732,35.5
83.3758,224.5
83.3828,349.7
83.409,324.1
83.4097,173.9
83.4318,431.5
83.4449,550.5
83.4547,366.3
83.4934,245.1
83.5103,198.6
83.5517,233.4
83.5771,481.3
83.5817,43.7
83.614,183.3
83.6202,515.6
83.6333,632.5
83.6427,431.8
83.6445,403.2
83.6557,255
83.6675,170.1
83.6912,144.4
83.7149,19.6
83.7341,165.3
83.7469,535.3
83.773,473.8
83.7897,196.4
83.8503,409.2
83.8551,341.4
83.8568,264.4
83.8619,345.4
83.8868,302.1
83.9164,331
83.917,491.2
83.9545,235
84.0068,317.5
84.0148,481.3
84.0372,237.2
84.0441,1079.8
84.084,340.8
84.1046,359.6
84.1225,144.7
84.1298,186.4
84.1337,579.3
84.2375,16.5
84.2715,349.8
84.2857,17.6
84.3168,150.2
84.3384,612.9
84.3599,149.7
84.3783,150.9
84.4167,17.8
84.4226,707.5
84.428,129
84.4574,338.5
84.4599,123.3
84.471,178.5
84.5312,432.1
84.5649,154.6
84.5669,444.8
84.6069,165.8
84.6157,16.6
84.6554,282.5
84.6597,197
84.6734,297.1
84.7061,537.4
84.7164,17.5
84.7369,258
84.7665,481
84.772,274.9
84.8008,17
84.8391,157.7
84.8543,358.1
84.8556,163.3
84.8841,460.7
84.9091,495.5
84.9284,335
84.9444,184.2
84.958,19.8
84.9594,10535.5
84.9801,168.7
84.9844,340.8
85.0126,17.4
85.0281,762.3
85.0725,308.9
85.0778,150.4
85.0867,203.4
85.103,648.1
85.1121,230.5
85.1457,208.3
85.1481,279.6
85.1753,17.9
85.1973,291.2
85.1998,359.4
85.2027,254.9
85.2045,584.6
85.2314,429.4
85.247,321.1
85.2512,545.5
85.2762,446.6
85.2828,206.4
85.2987,17.2
85.3251,158.5
85.34,343
85.3598,277.3
85.3825,185.7
85.459,503.9
85.4901,19.4
85.5057,228.6
85.5121,427.8
85.5626,205.6
85.5785,189.7
85.5938,18
85.5988,41.7
85.6036,351.2
85.6356,563.7
85.6431,446.3
85.6916,18.4
85.7155,819.8
85.7211,170
85.746,618
85.8414,163
85.8451,460.2
85.8706,18.3
85.925,383.3
85.928,17.8
85.967,488.7
85.9686,17.6
85.98,345.1
85.9899,170.1
86.0039,212.3
86.0211,440.3
86.0225,331.4
86.0251,299.3
86.0492,320.6
86.0597,12150.4
86.0665,307.8
86.0708,563.5
86.0813,450.9
86.0938,161.8
86.0961,98431.2
86.1175,144.4
86.119,716.6
86.1239,303
86.1352,415.6
86.1562,140.1
86.1575,469.4
86.1595,190.7
86.1643,513.9
86.2035,427.5
86.2127,157.5
86.2223,21.9
86.2352,347.2
86.2413,252
86.2833,743.9
86.2971,18.1
86.3105,500.4
86.3113,367.5
86.3245,126.9
86.4195,576.5
86.4517,644.1
86.4652,449.3
86.4697,417.9
86.4735,639.9
86.4793,201.2
86.4973,19
86.539,187.7
86.5532,315.1
86.5673,631.5
86.569,231.3
86.5711,650.9
86.5972,146.7
86.6074,327.9
86.6107,20.3
86.6237,156
86.7049,386.9
86.7057,146
86.7165,16.4
86.7225,200.2
86.7384,266.6
86.7402,460.4
86.7564,41
86.8074,39.1
86.8272,16.1
86.8445,163.2
86.8549,491.1
86.8857,677.4
86.89,525.3
86.9038,570
86.9204,222.4
86.9591,505
86.9664,589
86.9893,342.5
87.0536,226.1
87.0681,278.5
87.0728,444.5
87.0779,142.7
87.0995,1020.2
87.1545,312.8
87.159,137.7
87.2453,171.3
87.2692,553.1
87.2854,15.7
87.3136,710.5
87.3247,367.9
87.3279,305.6
87.3422,120.2
87.3527,20.1
87.3941,420.9
87.4334,714.3
87.462,479.4
87.4931,122.1
87.5067,392
87.5182,20.4
87.5569,19.3
87.5722,172.3
87.5741,535.8
87.6812,178.4
87.6834,466
87.6898,684.5
87.6918,363.3
87.7206,173.8
87.732,17.5
87.7408,718.1
87.7476,646.9
87.8195,491.2
87.8271,37.6
87.8674,436
87.8809,117.3
87.9112,309.9
87.916,514.8
87.9173,639.5
87.9297,366.6
87.9361,355.6
87.9796,158
88.0119,173
88.0131,208.1
88.039,1234.1
88.0445,559.4
88.0809,365.2
88.0848,21.7
88.0935,184.2
88.0957,226.2
88.1107,716.2
88.1165,170.4
88.1233,201.7
88.133,154.7
88.1384,185.9
88.1387,196.2
88.1531,630.5
88.1541,736.8
88.183,217.5
88.1929,36.6
88.2037,173.5
88.2184,364.8
88.2242,180.5
88.2291,17.4
88.2373,155.1
88.2391,17.7
88.3328,19.4
88.3339,151.2
88.3556,394.4
88.3609,326.7
88.3747,253.1
88.3902,206.7
88.399,589.9
88.4291,391.9
88.4333,16.6
88.4567,20.3
88.52,143.2
88.5663,33.1
88.5901,613.1
88.5941,285.1
88.6024,600.6
88.6245,300.6
88.6792,539.3
88.7013,19.5
88.721,210.5
88.7249,474.9
88.7753,156.5
88.7817,20.8
88.7834,427.2
88.7926,318.9
88.8065,236.4
88.8129,153.3
88.8492,333.1
88.877,150.3
88.8775,319.5
88.898,641.9
88.913,795
88.92,198
88.9501,406.2
88.9513,774.7
88.9522,49.7
88.9629,433.9
88.9922,333.7
89.0026,181.8
89.0302,174.1
89.0407,317.4
89.0583,292.9
89.0594,19.5
89.0798,439.8
89.0926,295
89.105,151.2
89.1196,664.1
89.1512,291.5
89.1625,16.5
89.1686,170.2
89.2059,338.8
89.2148,450.2
89.2362,148.8
89.2425,255.9
89.2639,235.7
89.2745,576.2
89.2943,432.2
89.3007,479.6
89.3152,169.1
89.3539,203.3
89.3718,19
89.3949,18
89.402,34.4
89.5272,19
89.5367,554.1
89.5573,253.7
89.5595,382.4
89.565,891.9
89.5887,210.1
89.6295,262.9
89.6624,395.3
89.6674,471.3
89.6797,272
89.6817,584
89.7055,514.5
89.7177,203.5
89.7362,486.4
89.7805,18.3
89.7816,388.1
89.8221,312.1
89.8296,209.1
89.8303,231.8
89.849,531.9
89.8757,293.3
89.879,464.7
89.9062,168.4
89.9215,242.3
89.938,193.3
89.9634,300
89.9676,178.6
90.0032,170.9
90.0044,333.2
90.0047,490.4
90.005,465.2
90.0363,352.7
90.0533,315.3
90.0886,47.9
90.1096,204.6
90.115,775.1
90.1395,175.9
90.1477,318.2
90.1494,19.8
90.1504,282.9
90.2035,423.6
90.2151,278.9
90.2219,274.6
90.2315,135.2
90.248,387.4
90.2691,149.7
90.3042,538
90.3058,154.6
90.3445,280.1
90.3646,334.9
90.3721,41.6
90.3749,182.1
90.4273,260.2
90.4778,281.6
90.5012,353.7
90.5048,381.8
90.5169,402.3
90.5398,16.7
90.5966,227.8
90.6048,707.6
90.6174,18.8
90.6313,174
90.6513,556.4
90.6825,310.6
90.6894,631.6
90.6986,480.7
90.714,213.5
90.7168,734
90.7191,157.9
90.7381,21.6
90.7693,472.4
90.7787,18.8
90.8105,188.8
90.8278,363.3
90.8888,294.4
90.8995,16.9
90.903,157.8
90.9362,148.4
90.9475,3103.2
90.9764,8929.6
91.0173,20.6
91.0223,179.6
91.046,407.6
91.054,1974.5
91.0572,25.3
91.0619,623.5
91.0655,160
91.0755,195.3
91.0812,142.6
91.0855,449.6
91.0899,369.4
91.0998,604.6
91.2015,374.3
91.2308,156.6
91.2361,520.2
91.2442,585.4
91.2835,500.7
91.3378,158.7
91.3461,243.1
91.369,405.3
91.3738,374.3
91.3829,441.9
91.4193,139.6
91.4243,237.1
91.4348,18.8
91.5133,164.1
91.5828,741.5
91.5891,182.9
91.6107,477.4
91.6455,529.9
91.6653,207.8
91.6666,21.8
91.6708,256.2
91.6855,171.5
91.6874,17.8
91.6967,394
91.7049,128.4
91.7124,183.2
91.7375,163.9
91.7734,300.9
91.7842,277.7
91.7923,175.4
91.7987,169.1
91.8079,237.4
91.8152,201.1
91.8198,613.6
91.8685,280.6
91.8786,181.7
91.8843,139.4
91.896,333.5
91.9044,337.8
91.9646,395.4
91.9803,596.3
92.0004,411.3
92.0094,420.7
92.0203,230.5
92.0493,174.7
92.0573,23.6
92.0703,156.4
92.1005,132.7
92.1036,900
92.1076,398.6
92.1132,187.9
92.1385,351.7
92.1418,18.1
92.1525,204.4
92.1765,146.6
92.1886,304.6
92.244,761.2
92.2824,41.1
92.3497,430.2
92.3848,484.2
92.3989,342.6
92.404,272.4
92.4273,41.4
92.4651,340.6
92.4799,291.1
92.5057,234.9
92.5165,576.4
92.5272,382.7
92.5435,466.6
92.6407,17.1
92.661,227.8
92.6769,562
92.6949,718.8
92.7103,177.5
92.7443,561.6
92.7453,381.9
92.7564,457.8
92.782,362.7
92.7973,495.8
92.8086,382.6
92.8096,359.5
92.8561,151.1
92.8622,238.1
92.8697,282.5
92.9097,247.4
92.9711,456.6
92.9948,320.6
93.0029,266.2
93.0124,163.1
93.0161,629.1
93.0332,24.3
93.0472,167.7
93.0571,28
93.0651,356.9
93.0696,42
93.0744,441.9
93.0749,476.8
93.0792,347
93.1067,216.1
93.1496,18.9
93.1503,145
93.1627,144
93.1631,142.8
93.1887,209
93.1937,561.4
93.2225,293.4
93.2243,149.9
93.2329,212.7
93.2379,336.4
93.2581,182.6
93.2597,549.3
93.2936,224.2
93.3101,43.7
93.3297,304.5
93.3491,662.6
93.3656,177.6
93.376,137.9
93.4102,349.6
93.4342,364.5
93.4351,484.2
93.4752,449.6
93.4943,412.8
93.5181,612.7
93.5212,216
93.53,359.9
93.5486,207.7
93.5496,670.9
93.5782,209.7
93.6658,452.7
93.6738,361.7
93.7262,16.5
93.7796,350.5
93.7931,480.5
93.8028,416.4
93.8092,415.5
93.8179,593.8
93.8766,347.3
93.9016,19.5
93.908,19.4
93.973,17.7
93.9812,41.1
94.0033,188.4
94.0094,184.3
94.0156,742.9
94.0369,117.3
94.0385,665.3
94.0411,40786.4
94.0436,316.5
94.0455,129.6
94.1246,610.7
94.1468,170.7
94.15,163.5
94.1581,236.5
94.1661,346.2
94.1766,20.7
94.2042,18.9
94.208,255
94.2899,56.7
94.2912,35.5
94.3185,297
94.3393,457.4
94.4211,169.5
94.4545,386
94.4567,288.5
94.4663,139.7
94.4684,646.4
94.5284,517.5
94.5973,196.7
94.598,636.1
94.6012,127.7
94.6069,18.7
94.6107,245.3
94.6819,532.9
94.708,398.2
94.7289,319.1
94.7581,18.8
94.7714,19.5
94.7736,229.4
94.7889,17.9
94.8077,651.2
94.8241,391.3
94.8706,39.2
94.8892,167.9
94.8953,347.9
94.8957,334.8
94.8991,334
94.923,322.7
94.9423,495.9
94.9585,236.1
94.9915,166.5
95.0016,197
95.0087,21
95.0198,308
95.0354,18.8
95.041,22.8
95.0445,931
95.0462,65.2
95.0475,266.3
95.0489,324389.2
95.051,83.4
95.0624,56
95.0853,626
95.1065,371
95.1082,546.8
95.1434,314.8
95.1453,538.4
95.1494,16.8
95.1895,516.1
95.1946,196.9
95.2505,165.3
95.2769,210.9
95.3205,575.5
95.3217,470.6
95.3258,623.8
95.3301,194
95.3352,280.1
95.3601,207.7
95.3636,276.5
95.3744,156.5
95.3777,137.4
95.3827,209.5
95.3919,306.8
95.3969,19.3
95.3976,17
95.4442,281.2
95.4769,231.5
95.478,146.8
95.4956,326.2
95.5534,425
95.5609,417.5
95.5689,40.8
95.5755,339
95.5829,432.5
95.647,332.5
95.6532,219.6
95.6827,524.4
95.7215,426
95.7419,692.2
95.784,399.9
95.7887,362.2
95.8084,155.8
95.8236,190.4
95.8857,147.1
95.8968,16.2
95.9491,148
95.9604,192
96.0506,663.1
96.0522,15924.9
96.1164,42
96.1435,573.7
96.176,471
96.1986,39.5
96.2194,173.1
96.2622,336.2
96.3528,372.9
96.3871,441.1
96.5232,268.8
96.5319,137.9
96.5579,164.7
96.5828,196.6
96.6167,223.7
96.6321,488.3
96.6476,41.2
96.6732,405.1
96.7298,155.8
96.7313,22.3
96.7531,513.9
96.7865,308.2
96.8371,541.5
96.8775,179.7
96.8858,180.5
96.8906,19
96.9157,679.5
96.9215,141884.2
96.9324,333.7
96.9373,34.5
96.9668,19.5
97.0074,35.7
97.0103,29.1
97.0126,463.8
97.0232,685.4
97.0488,885.7
97.0516,224
97.0531,53.4
97.0556,41.5
97.0931,211.9
97.1011,222
97.118,153.3
97.1218,286.3
97.1314,142.1
97.1344,136.9
97.139,137.3
97.1411,136
97.2304,17.5
97.2538,157.2
97.3543,19.7
97.3604,433.3
97.3706,156.7
97.3968,16.4
97.4,142.7
97.4099,362
97.4273,19.4
97.4336,216.9
97.4471,222.3
97.4778,16.4
97.5042,180.3
97.5337,422.5
97.586,379.8
97.5881,615.9
97.6748,271
97.6842,183.3
97.6854,528.4
97.6907,455.8
97.6975,36.3
97.7005,352
97.7313,360.4
97.7828,219.1
97.784,254.6
97.7883,269.3
97.7909,212.7
97.838,173.8
97.8883,204.6
97.9377,150.1
97.9738,324.5
98.0029,500.5
98.0813,172
98.0976,189.4
98.1617,20.6
98.1976,375.8
98.2189,419.9
98.2227,317.9
98.2713,518
98.2751,377.2
98.2936,471.5
98.2944,566.6
98.3001,288.6
98.3063,498.7
98.3515,362
98.3611,419.9
98.3716,652.2
98.3754,470
98.4258,321.4
98.4452,293.3
98.4878,591.2
98.5145,411.2
98.5243,256.1
98.5447,243.6
98.5779,277.9
98.5933,567
98.6359,465.5
98.6444,507.5
98.6626,124.2
98.6751,753.6
98.7052,233.1
98.724,18.4
98.7261,183.5
98.7395,479.9
98.7871,171.6
98.8394,173.9
98.8755,291.5
98.8824,268.1
98.8936,324.3
98.9062,333.2
98.9098,46.8
98.9186,37407.5
98.9196,4876.8
98.9573,525.1
98.9751,9668.9
98.977,309.7
98.9839,281.7
99.029,695.5
99.0765,16.6
99.0894,18.4
99.1024,17.9
99.1095,318.2
99.18,327.1
99.2242,367.6
99.2527,643.1
99.2853,500.4
99.3072,277
99.3375,463.5
99.3701,226.8
99.3993,210.3
99.407,124
99.4586,527.8
99.4753,384.3
99.5154,498.6
99.5637,207.6
99.571,167.7
99.5939,21.2
99.6633,418.1
99.7126,161
99.7215,19
99.7228,499.5
99.8149,297.7
99.8353,208.3
99.8355,219.8
99.8413,345.4
99.843,196.9
99.8477,280.5
99.8951,20.8
99.925,305.5
99.9442,503.6
99.9479,339
99.9681,19.4
99.9832,45.4
100.0376,486.7
100.0438,129.2
100.0463,339.6
100.0544,142
100.0755,64.5
100.0913,251.7
100.1087,158.2
100.1383,140.6
100.1389,123.7
100.2443,165.1
100.2754,465.6
100.28,205.6
100.3049,153.7
100.3641,538.9
100.3725,17
100.3797,16.9
100.4302,373.9
100.44,422.4
100.459,341
100.4709,246.4
100.4767,237.9
100.5006,268.5
100.5089,458.8
100.515,517.6
100.556,17
100.5905,17
100.5935,21.6
100.6009,528.3
100.6032,489.9
100.607,418.2
100.6148,214.9
100.6549,337.9
100.7104,453.8
100.7215,17.8
100.7433,245.9
100.7732,208.2
100.8695,415.3
100.8793,671.8
100.8835,180.8
100.9167,1991.4
100.9214,358.3
100.9281,171.5
100.9312,413.5
100.9392,734
100.9452,368.1
100.9664,18.9
100.993,199.1
101.0036,243.1
101.0057,19.5
101.0196,198.1
101.0334,312.6
101.0469,415.7
101.05,38.4
101.0707,2197
101.0968,252.3
101.0985,186.7
101.1172,16.3
101.1556,324.4
101.203,161.8
101.234,263.9
101.2601,18.8
101.2622,159.2
101.4179,333.8
101.4478,159.3
101.4587,650.4
101.5472,217.5
101.5522,350
101.6091,189.8
101.6318,523.2
101.6768,424.1
101.6911,342
101.6968,17.6
101.7301,16.9
101.7687,424.3
101.7869,18.7
101.7958,209.3
101.7995,160.7
101.8163,361.5
101.8265,624.9
101.8403,268.3
101.8545,608.9
101.899,279.5
101.9546,194.7
101.9634,206.8
101.9686,259.7
102.0159,251.9
102.0186,260
102.0242,882.5
102.043,667.1
102.0547,230
102.0615,294.1
102.0813,260.9
102.0881,350.3
102.0914,17.7
102.159,661
102.1851,395.7
102.1998,650.2
102.2298,44.1
102.2437,567.6
102.2932,396.4
102.3399,231.7
102.3412,791.4
102.3695,17.4
102.4014,15.5
102.4059,126.8
102.4078,19.2
102.4425,146.7
102.4595,17.7
102.5001,205.2
102.5268,569.3
102.5414,173.2
102.5909,806.1
102.6122,314.3
102.6379,309.1
102.6568,250.6
102.6675,597.7
102.6753,240.8
102.7095,431.4
102.736,340.4
102.79,671
102.8381,324.4
102.8761,160.7
102.8807,621.1
102.9099,538.9
102.9251,364.6
102.9701,338.4
103.0105,146.9
103.019,229.4
103.0218,675.6
103.0934,230.1
103.1252,168
103.1614,412.1
103.1868,315.7
103.2088,419.8
103.2394,389.6
103.2415,683.2
103.2477,301.7
103.2763,18.5
103.28,500.1
103.3201,343.6
103.3457,637.8
103.4159,279
103.4509,16.6
103.4561,274.7
103.463,534.4
103.5464,295.6
103.5547,319.9
103.5605,480
103.5703,440.8
103.6119,216.3
103.6201,179.2
103.6285,223
103.6362,225.5
103.6626,22.3
103.6646,696.9
103.6744,182.5
103.7241,415.2
103.7442,201.4
103.7669,290.3
103.7805,298.1
103.7963,589.6
103.8006,250.2
103.8139,137.7
103.8219,169.9
103.8349,199.6
103.8578,181.8
103.8752,211
103.8763,169.8
103.9481,215.2
103.9548,396.1
103.9643,256.1
103.9663,19.5
103.9791,103.8
103.9802,244.9
104.0461,171.7
104.0554,16.6
104.1067,365090.8
104.1324,498.7
104.135,285.9
104.1492,17.3
104.1873,17.9
104.2224,248.3
104.2487,136.7
104.2763,148.3
104.2933,287.5
104.305,153.2
104.3185,401.9
104.3265,238.3
104.3418,350.5
104.3621,137.5
104.3982,367.1
104.4141,451.8
104.4219,300.5
104.4243,251.8
104.4638,628.8
104.4834,486.4
104.5471,384.4
104.563,198.9
104.577,867.3
104.6313,22.7
104.6555,151.5
104.6734,319
104.7015,216
104.7062,168.4
104.7375,19.7
104.7677,205.5
104.7706,379.7
104.819,18.8
104.8222,407.5
104.832,188.7
104.8481,195.2
104.8892,321.9
104.8956,535.2
104.9075,32.4
104.9184,153.4
104.9197,587.5
104.9336,378.6
104.9478,83.1
104.9631,3196.9
104.979,300
105.0209,16.6
105.0445,23561.3
105.0597,468.6
105.0811,19.7
105.0995,432.4
105.1101,11785.1
105.1228,269.2
105.1616,474.1
105.1745,236.3
105.2089,267.9
105.2718,388
105.2798,19.6
105.2891,20.5
105.307,406.3
105.3155,41.7
105.3435,661.9
105.3658,163.4
105.3971,175
105.4388,19.6
105.4494,22.9
105.4855,206.9
105.5106,158.8
105.5338,472.4
105.5574,211.8
105.6188,564.7
105.6986,18
105.7082,208.3
105.715,16.9
105.744,19.3
105.7633,257.1
105.7664,302.2
105.769,195.7
105.7777,299.2
105.7822,16.3
105.8276,328.8
105.8572,18.2
105.8899,197.2
105.8985,269.6
105.9239,819.8
105.9439,162
105.9449,18.5
105.9593,324.9
105.9632,34.9
105.9735,475.7
106.0118,313.7
106.0344,188.4
106.0478,690.9
106.0649,49.7
106.0891,317.5
106.1492,299.8
106.1641,539.1
106.1667,171.2
106.1754,240.9
106.18,16.6
106.2392,377.9
106.2706,37.2
106.2929,144.5
106.3114,154.7
106.3499,212.1
106.3759,18.7
106.4166,241.6
106.4235,19.7
106.4359,281.3
106.4407,20.6
106.4441,624.4
106.4814,249.7
106.484,48.3
106.506,173.5
106.5294,216.5
106.5984,336.2
106.6065,250.3
106.6399,721.9
106.6436,19.3
106.6456,543.9
106.6674,461.5
106.7242,369.2
106.7398,313.7
106.7509,169.6
106.8141,281
106.8298,25.1
106.8397,522
106.8494,373.4
106.8658,18.1
106.8767,238.4
106.8789,190.4
106.9504,5001.3
106.9766,193.8
106.9821,201.2
106.9922,16.9
107.0281,30.2
107.0349,274
107.0369,520.8
107.0445,348.2
107.0489,587.4
107.053,484.1
107.0569,614.7
107.0584,437.6
107.0608,775.8
107.0679,19.8
107.0849,313.5
107.1122,256.2
107.1411,39.7
107.215,328
107.2594,246.1
107.2707,157.7
107.2782,444.1
107.3135,21.4
107.3179,216.3
107.3571,538
107.3816,20.1
107.3906,384.9
107.3944,20.5
107.4135,297.6
107.4667,38.3
107.51,256.6
107.5203,790.7
107.5639,196.1
107.5688,387
107.5792,565.7
107.6158,237.3
107.6933,639.1
107.7179,274.3
107.7318,360
107.7345,299
107.7514,352.5
107.773,171
107.7763,623.5
107.7857,516.6
107.7894,177.3
107.8468,153.9
107.8669,199.6
107.8954,495.3
107.9039,16.7
107.9075,317.1
107.9278,327.9
107.9717,18
107.9795,456.3
107.9864,222.7
107.996,152.5
108.012,657.9
108.0825,227.6
108.1061,502.8
108.1681,424.3
108.1715,142.5
108.2877,436.3
108.3316,870.2
108.3796,596.1
108.3859,250.3
108.3953,337.6
108.4821,266.3
108.4861,349.1
108.5021,340.4
108.5177,766.7
108.5228,375.4
108.5402,299.1
108.5448,346.6
108.5563,282.3
108.5732,450.7
108.5741,51.7
108.5814,462.5
108.5871,340.3
108.6052,135.9
108.6236,349.7
108.6447,607.1
108.6866,517.3
108.7366,347.4
108.7382,520.7
108.7832,167.6
108.7882,322.1
108.8048,991.1
108.806,269.2
108.808,39.8
108.8857,866.4
108.8917,369.4
108.8963,235.1
108.9023,349.7
108.9136,22.1
108.9187,673.3
108.9582,52.5
108.9726,572
108.9895,439.2
108.9934,576.2
109.0386,731.3
109.0646,43030.6
109.0702,316
109.0897,16.4
109.101,231
109.1184,177.7
109.1702,41.4
109.1986,202.8
109.2049,306
109.2205,19.2
109.2266,270
109.2562,19
109.2575,117.8
109.259,332.7
109.2682,329.3
109.3122,351.4
109.3729,144.7
109.388,583.6
109.39,154.8
109.4153,353.4
109.4202,281.7
109.441,17.1
109.4435,474.4
109.5274,209.9
109.5489,17.6
109.5547,19.9
109.573,23.1
109.5761,667.7
109.6076,420.2
109.6089,18
109.6165,222.2
109.6544,466.2
109.7111,36.5
109.72,19.2
109.7867,522
109.8631,250.3
109.9032,17.3
109.9693,162.1
109.9915,16.9
110.0215,176.9
110.0383,729.5
110.0492,505
110.0517,166.1
110.0679,1469.4
110.0709,1462.9
110.0767,327.6
110.1313,542.6
110.2582,168.5
110.3014,166.3
110.3109,210.5
110.3311,41.5
110.4047,19.1
110.4589,771.5
110.4879,469.6
110.5991,17.2
110.6022,140.2
110.6115,372.8
110.6223,288.4
110.6655,21.1
110.7015,118.7
110.7059,580.9
110.761,153.2
110.7755,178.8
110.8063,164.6
110.8115,152
110.8128,20.3
110.8393,169.9
110.8969,335
110.9013,231.2
110.9481,34.2
110.9498,148.3
110.9721,191.4
110.9726,160.3
111.023,72
111.0372,339
111.0438,292.8
111.1035,227.4
111.1292,131.9
111.1953,19.1
111.2051,141
111.212,153.2
111.2211,17
111.2407,582.7
111.242,385.1
111.2666,674.3
111.2941,643.8
111.3165,535.1
111.3882,166.6
111.4045,21
111.4134,23.1
111.4196,555
111.4282,511.5
111.4515,385.1
111.454,476.8
111.5262,111.2
111.5449,39.5
111.6239,230.9
111.6369,164.8
111.6784,216.9
111.69,312.5
111.7158,17.7
111.7416,318.7
111.8077,568.5
111.8692,226.9
111.9454,211.9
111.9866,17.5
112.0518,20.7
112.0632,224.6
112.0671,135.1
112.1421,20.1
112.1609,126.2
112.1736,43.5
112.1796,19.1
112.185,224.9
112.2919,193.2
112.3141,545.7
112.3379,183.2
112.3586,241.1
112.368,199.7
112.3767,157.5
112.3991,704.1
112.4072,184.8
112.4323,478.6
112.4491,207.8
112.4581,317.3
112.499,41.1
112.5115,40.4
112.5328,700.4
112.5478,20.8
112.5522,227.3
112.5603,32.9
112.5666,760.8
112.6165,280.9
112.6291,408.4
112.6312,19.8
112.6328,177.6
112.6389,174.6
112.6982,20.5
112.7029,833.9
112.7321,37.4
112.7681,185.2
112.8276,376.8
112.8483,200.7
112.8955,472439
112.9123,145.4
112.9663,503
112.9696,347.6
113.0165,162.2
113.0904,594.1
113.0924,148.2
113.1407,469
113.171,300.1
113.1743,310
113.2439,147.5
113.2805,280.2
113.2916,277.9
113.3032,17.7
113.3571,215.6
113.3654,306.4
113.396,19.1
113.4833,297.6
113.4991,400.7
113.5253,216.9
113.5302,237
113.5686,597
113.6578,226.9
113.7564,368.5
113.7662,159.6
113.7726,230.9
113.7929,220.9
113.8123,701.1
113.8267,151.6
113.876,709.3
113.902,16.5
113.9132,120.4
113.9248,511.3
113.9635,17.8
113.9925,303.3
113.9957,20.5
114.0242,161.3
114.0279,199.2
114.0469,388.4
114.0547,16885
114.0659,424.9
114.0911,21.6
114.1198,351
114.1501,299.9
114.1952,528.1
114.254,320.6
114.3576,279.8
114.4245,349.4
114.4722,17.6
114.4929,673.2
114.5254,304.9
114.5295,181.3
114.5926,157.9
114.5981,215.7
114.5992,599.7
114.6088,124.9
114.6395,19.2
114.6438,460.8
114.6533,153.5
114.6622,387.7
114.7186,353
114.7282,16.6
114.757,212.1
114.7607,166.1
114.825,357.6
114.8329,304.4
114.851,155.6
114.8673,396.2
114.8926,142256.4
114.948,469.4
114.9739,163.4
114.9879,314.7
115.022,18.3
115.0509,314.9
115.0637,334.1
115.0914,412.2
115.1049,341.1
115.1089,18.4
115.1145,460.3
115.1167,333.7
115.1195,611
115.1833,189.2
115.245,157
115.2528,17.9
115.2743,192.9
115.2776,668.2
115.3985,20.9
115.4982,381.8
115.5181,135.1
115.5334,18.1
115.6982,487.6
115.7295,470
115.7648,337.8
115.788,278
115.8162,150
115.8511,247.7
115.935,42
115.9454,171.6
115.9792,534.3
115.9944,228.5
116.0032,172.4
116.0044,341.9
116.036,204.4
116.0704,2961.5
116.0758,635.2
116.1039,505.1
116.1345,677.7
116.183,246.8
116.2481,296.6
116.2545,226.2
116.267,135.2
116.3038,186.6
116.3149,333.1
116.373,179.6
116.3789,275
116.4147,634.9
116.4531,36.6
116.4887,47.2
116.5177,204.5
116.534,467.9
116.5593,163.8
116.6271,222.4
116.6909,235.7
116.7265,251.3
116.758,290.2
116.8263,328.1
116.8907,19002.8
116.9395,350.8
116.9631,107.5
116.9676,312.1
116.9857,95.9
117.0055,221.1
117.0477,266.7
117.0763,17.8
117.0817,315.8
117.0924,217.6
117.094,21.9
117.1295,464.6
117.1426,202.3
117.1597,460.5
117.195,504.4
117.2401,316.5
117.3621,190.8
117.4007,139.9
117.4035,166.1
117.4324,175.6
117.4521,646.4
117.4631,416.1
117.4853,33.8
117.4946,17.6
117.6121,713.1
117.6975,160.4
117.7541,22.6
117.7677,320.5
117.7809,183.4
117.8263,515.6
117.8429,326.3
117.873,953.8
117.8838,593.2
117.9262,498.3
117.9455,56.3
117.9947,18
118.0518,271.5
118.0797,194.8
118.1055,248.3
118.1412,307.9
118.1785,148
118.2282,501
118.2718,321.5
118.408,229.5
118.4286,118.3
118.4523,398.4
118.4785,195.6
118.529,211
118.5835,150.8
118.6139,181
118.6234,18
118.6334,380.3
118.6542,391.4
118.884,22.6
118.8958,176
118.9424,981
118.9446,17.6
118.9515,157.5
118.9788,381.4
118.993,363
119.0747,720.3
119.0855,17.9
119.0999,366.9
119.1686,163.1
119.1934,16.8
119.2126,381.1
119.2401,221.7
119.2457,550.5
119.2776,19
119.4229,138.8
119.4259,17.4
119.4362,292
119.4809,278.9
119.5264,346.5
119.5354,420.8
119.5643,1116.5
119.6224,16.8
119.6747,493.9
119.6908,503.2
119.6957,368.9
119.7102,43.2
119.7139,220.2
119.7353,140.6
119.7398,162
119.7781,179.2
119.8122,214.7
119.8516,17.5
119.8581,235.6
119.8694,177.6
119.8756,280.1
119.8791,656.3
119.9577,17.6
120.0029,2953.7
120.0053,269.3
120.008,734.8
120.0133,792.9
120.014,303.3
120.0175,217.4
120.0295,219.9
120.0806,21488.9
120.1167,143.5
120.1627,350.8
120.265,160.9
120.292,296.4
120.3097,406.6
120.3132,159
120.3161,405.1
120.421,501.2
120.4517,17.2
120.519,921.8
120.5463,17.4
120.5508,273.6
120.5619,259.6
120.5793,17.9
120.5812,363.3
120.6291,522.6
120.679,511.4
120.6797,535.5
120.7884,197.6
120.8119,16.8
120.8174,430.4
120.8562,184.5
120.8669,663.3
120.8803,147.6
120.8826,18.3
120.9021,461.4
120.9425,18
120.9659,525.8
120.9784,522.9
120.9894,777.1
120.9971,317.3
121.0074,121
121.0261,148.1
121.0283,314.6
121.0394,62.2
121.0486,225.3
121.0516,19.4
121.101,88.5
121.1421,321.7
121.2487,175.3
121.2538,194
121.2771,491.8
121.3522,211.9
121.3587,330.1
121.3627,183.4
121.3686,18.6
121.4066,330
121.4815,493
121.5839,546.9
121.5957,322.4
121.5998,312.2
121.6367,599.3
121.6599,177.6
121.6825,266.9
121.7948,140.3
121.8284,261
121.8341,634.8
121.8552,211.7
121.8952,127.2
121.9083,249.9
121.9113,395
121.9515,507.9
121.9844,129.2
122.0001,333.2
122.0191,37.3
122.0281,526.5
122.0442,189.6
122.1117,23.5
122.2142,236.2
122.2234,116.4
122.2733,311.1
122.2814,155.9
122.3848,429.2
122.3891,226.2
122.4006,442.6
122.4947,665.7
122.5178,221.7
122.5598,181.5
122.5618,17.6
122.6557,355.2
122.665,227.8
122.6712,245.3
122.6982,201.4
122.714,18.8
122.7185,165.8
122.7329,244.2
122.7921,158.8
122.8141,43
122.8396,590.4
122.8447,485.3
122.9022,500.5
122.9071,212.9
122.9205,370.3
122.9243,27053.6
122.9405,171.3
122.9694,411.2
122.9731,619.8
122.9952,291.2
123.0135,17.9
123.0507,17
123.0684,22.2
123.1167,117.7
123.1396,166.1
123.1531,277.5
123.1733,608.7
123.1778,433.5
123.2165,394
123.2345,639.9
123.3094,801.5
123.3864,246.2
123.4499,17.5
123.4624,18.7
123.4649,205.2
123.4901,574.3
123.529,217.9
123.5656,231.9
123.5985,612
123.6526,211.8
123.6941,181.1
123.7469,542.2
123.7539,224.1
123.7612,612.1
123.7814,151
123.7915,118.8
123.89,201.6
123.9415,259.8
124.034,185.5
124.0583,482.8
124.0616,409.7
124.1265,304.6
124.1648,286.9
124.1846,357.6
124.1932,375.2
124.1993,143.2
124.2115,19.4
124.3994,299
124.4259,730
124.5376,502.5
124.5416,271.6
124.5815,119.7
124.6382,805.2
124.6806,196
124.7466,354.5
124.8298,529.7
124.8745,40.3
124.8808,152.5
124.9225,2421.3
124.925,170.8
124.9496,376.5
124.9811,369.8
124.9877,863.6
124.9953,16.9
124.9996,4911.1
125.0054,771.5
125.0363,158.6
125.0386,43.5
125.0596,38.8
125.0642,185.8
125.0919,261.1
125.096,22.7
125.0983,19.9
125.1071,534.2
125.1325,23.9
125.1443,169.1
125.1672,161.1
125.2593,667.6
125.2843,541.2
125.3291,127.5
125.4359,789.5
125.4453,620.9
125.4601,186.8
125.4658,39
125.4673,551.1
125.491,498.5
125.5035,531
125.5099,309.4
125.5136,158.4
125.6063,469.3
125.6129,148.4
125.7016,20
125.7275,582.3
125.7385,549.4
125.7746,370.4
125.8139,534.9
125.843,364.4
125.8768,360.7
125.9263,472
125.987,419.7
125.9999,88.6
126.0086,23.9
126.0624,122.8
126.0828,143.8
126.0933,168.2
126.1125,16.6
126.1313,204.4
126.1318,227.9
126.1323,141.1
126.134,228.4
126.1394,748.3
126.1442,171.5
126.2508,25.5
126.2661,212.1
126.2884,569.8
126.2973,217.9
126.3003,732.9
126.3136,434.2
126.3315,142.1
126.351,489.7
126.3911,451.9
126.4065,20.4
126.4324,271.6
126.4417,390.5
126.4453,214.6
126.4562,518.4
126.5243,154.7
126.5388,19.4
126.5717,164.1
126.7503,445.8
126.8005,350.5
126.825,636.6
126.8648,415.8
126.8798,172.5
126.8956,301.9
126.9754,300.3
127.0476,86.3
127.0581,207.8
127.1271,224.4
127.1443,18.5
127.1597,210.6
127.188,216.6
127.205,140
127.2446,728.1
127.2748,244.9
127.2833,18.9
127.2976,733.7
127.3711,420.8
127.4398,384.4
127.5043,468.7
127.5054,496.7
127.5169,170.9
127.5251,165.9
127.5294,348.1
127.5557,168.4
127.5699,306.6
127.6156,221.3
127.6219,151.6
127.6253,293.9
127.6542,612.2
127.6717,18.3
127.6915,473.1
127.7985,185.3
127.8005,20
127.8094,184.8
127.8289,193
127.8331,145.6
127.8738,162.9
127.9071,321.6
127.911,179.5
127.9282,313.5
127.9448,379.3
128.0115,503.3
128.0173,164.2
128.0361,382.8
128.0781,38.9
128.1017,168.5
128.1463,342.4
128.1511,730.6
128.1614,406
128.2006,418.1
128.215,315.1
128.2512,150.6
128.2673,283.4
128.2853,405.6
128.3321,18.9
128.3719,386.3
128.393,187.4
128.6236,200.4
128.6518,390.3
128.6752,378.8
128.7025,476
128.7118,230.8
128.717,137.1
128.7752,139.9
128.7876,461.3
128.7915,254
128.8064,456.5
128.8332,368.2
128.8627,392
128.8798,281.2
128.9031,15.9
128.9282,566.7
128.9319,737
128.9411,37
128.9445,157.7
128.9636,153.2
128.9676,612.7
129.003,707.8
129.0345,168.2
129.0663,169.8
129.0793,362.8
129.102,1301.8
129.1259,322.3
129.1712,163.6
129.1912,153.2
129.1982,19.7
129.233,656.5
129.3489,502.1
129.3887,351
129.413,140.4
129.4194,17.4
129.5189,256.6
129.5538,186.1
129.5562,666.5
129.5936,181.7
129.6112,394.1
129.6716,185.4
129.6771,281.7
129.7076,146.6
129.8114,517.7
129.8168,210.5
129.8587,233.6
129.8817,797.5
129.887,129.2
129.8895,722.7
129.9063,228.2
129.9169,409.6
129.93,333
129.954,412.8
129.9585,143.8
129.9948,25.9
130.0053,159.2
130.0083,410.5
130.0453,17
130.0497,10492.7
130.1176,252.7
130.1975,156.6
130.2151,279
130.231,255.9
130.2685,431.9
130.2997,205.9
130.3102,19.3
130.3966,262.4
130.4494,311.3
130.4693,399.2
130.493,219.3
130.4978,371.4
130.5307,18.4
130.5513,210
130.566,167.5
130.6163,283.1
130.6226,249.5
130.6483,457.2
130.7022,39.7
130.7208,617.8
130.7213,616.2
130.7222,409
130.7373,19.4
130.8154,514.3
130.8237,763.9
130.8241,716.9
130.8346,184.2
130.8771,659.6
130.881,251.4
130.922,387.3
130.9788,60.8
130.9842,276.6
131,50.9
131.0394,199
131.0452,536.2
131.0544,18.6
131.0578,393.7
131.0675,645.6
131.1153,157.8
131.1528,219.6
131.1541,220.9
131.1809,43.7
131.2034,315.2
131.2147,217.2
131.2302,177
131.2506,118.5
131.2632,19.2
131.2846,423.6
131.3059,37
131.3402,311.5
131.3645,149.6
131.3853,519.4
131.4781,250.5
131.5522,278.5
131.5551,220.1
131.5647,150
131.6077,490.2
131.6391,492.3
131.6564,453.9
131.6642,280.4
131.6724,333.3
131.7034,200.4
131.7146,220.5
131.7212,19.8
131.7435,173.8
131.7605,548.7
131.7777,731.1
131.8105,21.2
131.8405,699.6
131.867,121.8
131.8755,37.1
131.8976,402.9
131.8998,273.4
131.9557,17.6
132.003,35648.2
132.0253,576.2
132.0654,29844
132.0766,7379.6
132.0792,181.7
132.1175,153.8
132.1836,352.2
132.1956,229.9
132.2334,331
132.2449,18.8
132.2717,43.4
132.3481,249.6
132.3538,210
132.3625,302.9
132.4025,20
132.4586,360.1
132.5257,774.1
132.5676,176.6
132.5887,251.4
132.6012,392.8
132.6158,309
132.6277,125.8
132.6868,17.8
132.6986,464.1
132.7092,168
132.7209,267.1
132.7496,1000.7
132.7662,611.7
132.8032,129.4
132.8196,20.2
132.8455,345.5
132.8465,162.2
132.8473,132.1
132.8685,276.9
132.8729,17.1
132.9024,21.2
132.9581,1138.3
132.9872,585.7
132.9938,273.3
133.0185,165.4
133.0404,560.3
133.0686,205.6
133.0788,239.7
133.0857,109.4
133.097,14863.8
133.1248,187.6
133.1338,159.4
133.1819,140.2
133.1988,197.2
133.2033,346.7
133.2784,394.4
133.2891,352.6
133.3403,209.3
133.3906,204.2
133.4172,541.5
133.4495,189.1
133.4847,354.6
133.5036,273.4
133.6088,190.1
133.6441,459.3
133.69,156.2
133.7617,146.7
133.769,312.2
133.7746,20.6
133.7968,688.8
133.8,184.2
133.8018,324.5
133.8059,17.3
133.8588,20.2
133.9206,294.1
133.9506,328.9
133.9675,518.1
133.9814,21.2
134.0069,180.8
134.0187,6641.8
134.0262,17.4
134.0335,259.4
134.1585,163.7
134.1946,36.7
134.2757,531.8
134.3061,365.8
134.3308,19.7
134.3868,18.5
134.3933,504
134.3966,17.5
134.4609,20.6
134.4949,18.3
134.535,387
134.586,19.4
134.5994,332.4
134.6557,19.5
134.6951,363.7
134.7142,17.8
134.7176,214.6
134.725,322.7
134.7502,500
134.7588,336.6
134.8306,428.5
134.8599,18.8
134.8714,362.4
134.8849,513.6
134.9713,19.8
134.989,209.2
135.0027,30660.4
135.1008,695.3
135.1168,22.4
135.1179,18.1
135.1927,16.7
135.2646,676.9
135.2882,533.1
135.427,402.1
135.4663,349.5
135.4761,155.6
135.5705,533.2
135.5926,38.3
135.6102,266.4
135.6396,186.4
135.6764,345.6
135.7421,311.7
135.8088,522.8
135.843,502.5
135.8506,465
135.9462,244.4
135.9769,2124.6
136.007,20.1
136.0151,184
136.048,6229
136.0616,70.4
136.0755,18031.1
136.1201,19.4
136.2083,508.7
136.231,616
136.3019,641
136.3134,594.2
136.3648,471.3
136.4142,323.5
136.423,870.2
136.4329,181.4
136.4459,530.1
136.5098,179.9
136.5321,362.9
136.6177,507.5
136.6427,128.5
136.6898,417.7
136.7749,380.9
136.7945,504.1
136.817,186.5
136.8827,19.2
136.9003,36.1
136.9205,145.9
136.9355,19
136.953,143.3
136.9608,195.6
136.9833,448.1
136.9886,148.4
137.0196,667.4
137.0248,228.7
137.0495,423.3
137.1003,521.7
137.1324,47.9
137.137,192.7
137.1388,166.9
137.146,20
137.1559,17.4
137.3336,373.6
137.3451,486.7
137.4139,18.2
137.416,421.9
137.4178,599.8
137.441,219.7
137.4461,308.3
137.4811,276.8
137.5885,731.2
137.6078,316.8
137.642,261.2
137.7466,261.9
137.7765,388.5
137.8102,196.4
137.8271,164.2
137.8301,169.7
137.8501,246.3
137.8602,509.3
137.8989,395
137.9021,194.7
137.9106,43
137.9239,347.1
137.9261,267.9
137.9751,542.5
138.048,644.3
138.0524,4026.1
138.0661,48.2
138.0919,773.9
138.1787,605.5
138.1821,17.2
138.2056,258.2
138.207,431
138.209,395.8
138.2193,1145.3
138.2199,1071.9
138.2214,680.5
138.2256,428.5
138.2975,185.9
138.3194,190.1
138.3313,785.8
138.3478,17.7
138.4007,18.4
138.4406,515.5
138.5233,295
138.5542,41.3
138.5864,503.1
138.601,206
138.6194,187
138.6436,314.4
138.6682,168.2
138.6743,394
138.712,171.8
138.7577,166
138.7635,241.5
138.8008,389.2
138.9062,1928.7
138.9436,18.7
138.9842,19.9
139.0398,157.2
139.0615,419.8
139.0897,531.4
139.1201,20.9
139.1688,300.2
139.1709,22.7
139.2474,208.2
139.2984,145.5
139.3071,210
139.3174,554.8
139.3541,639.9
139.4041,555.9
139.4057,526.3
139.4285,521.4
139.4979,155
139.5132,122.2
139.5219,18.8
139.5546,18.3
139.56,579.3
139.589,345.1
139.5928,17.9
139.6704,790.3
139.6863,19.1
139.7478,373.4
139.75,19.3
139.7805,39.2
139.7923,129.9
139.7951,378.3
139.8247,351.5
139.8741,283.6
139.896,323
139.9125,22.1
139.9526,571.2
139.9929,19.1
140.0163,2610.6
140.0264,176.6
140.0316,155.4
140.068,1026.3
140.0908,326.2
140.2014,561.1
140.2357,379.8
140.2523,495.1
140.2604,399.5
140.3202,395.3
140.3502,21.9
140.4013,243
140.4065,554.8
140.4603,368.7
140.4798,221
140.4824,166.8
140.4985,163.7
140.5133,188.3
140.5399,308.4
140.5432,979.2
140.6484,331.5
140.6701,455.6
140.6899,565.6
140.702,206.8
140.7225,739.1
140.8683,736.5
140.8889,346.4
140.9,20.8
140.9034,571.9
140.9039,464.1
140.9048,508.2
141.0003,14101.4
141.0055,159.2
141.0197,27.3
141.0431,132.3
141.0592,275.7
141.0662,24.6
141.0674,189.2
141.0839,271.5
141.0959,316.8
141.131,20.4
141.2037,445.8
141.2809,231.2
141.2839,465.9
141.3348,737.3
141.3525,298.3
141.3791,183.6
141.3817,217.6
141.413,167.4
141.5448,490.7
141.5951,193.3
141.6065,119.3
141.6228,38.1
141.687,330.9
141.704,329.8
141.7071,203.3
141.7619,217.8
141.7836,177.3
141.8135,186.7
141.8361,311.7
141.8413,185.7
141.8457,217.7
141.8851,160.8
141.9236,17.8
141.96,211.2
141.9716,236.7
141.9844,445.3
141.9948,246.3
142.0037,436.5
142.012,27.2
142.0469,256.1
142.0534,162.7
142.2252,155.6
142.2388,689.2
142.2694,471.8
142.2763,167.1
142.3996,247.1
142.4092,477.8
142.4112,257.9
142.449,242.6
142.4621,894.9
142.5637,438.8
142.6775,156
142.7049,448.1
142.7825,158.9
142.7974,273.9
142.8176,17.3
142.8585,434
142.9094,169.9
142.9374,369.5
142.9727,716
142.9807,225.9
142.9962,310.8
143.0001,20.2
143.0093,326.3
143.0726,154.7
143.1155,17.3
143.1663,17.3
143.2149,178.6
143.2173,173.2
143.2243,17.3
143.2254,15.8
143.2917,189
143.2983,219.2
143.3158,204.1
143.3237,257.5
143.3949,35.9
143.4413,470.1
143.468,226.5
143.4889,539.5
143.4929,431.9
143.4994,205.2
143.5249,206.5
143.5803,22.2
143.5913,153.1
143.6091,165.9
143.7645,517.5
143.7802,369.3
143.7823,21.5
143.7833,176.7
143.844,875.9
143.8663,18.4
143.8813,171.7
143.886,142.5
143.8953,418.4
143.9014,155.4
144.0054,492.8
144.0105,791.9
144.0538,463.2
144.0829,209.3
144.107,164.3
144.1233,226.2
144.1651,582.4
144.1877,185.2
144.2468,206.6
144.2483,466.2
144.2899,117.9
144.3003,241.8
144.3944,140.7
144.4195,310.2
144.4371,387.2
144.4773,181.5
144.4922,256.8
144.4991,230.8
144.5283,239.1
144.574,241.7
144.5859,532.9
144.6374,639
144.6497,265.8
144.6634,129.1
144.6835,357.1
144.7178,221.6
144.7396,21.7
144.7522,237.4
144.7678,325.3
144.8063,377.4
144.8169,21.9
144.8606,17.7
144.8779,171.4
144.9762,18.4
144.9807,835.2
144.9868,17.8
145.0068,142.8
145.0228,287.8
145.058,219.5
145.0919,164.7
145.0947,258.7
145.1805,160.7
145.187,554
145.2045,19.5
145.2069,346
145.3247,16.9
145.3368,199.2
145.4072,20
145.5014,207.8
145.5559,170.8
145.5642,361
145.59,481.4
145.6685,503.2
145.73,186.5
145.7516,237
145.7596,320.2
145.8057,290.7
145.8751,165.9
145.8891,236
145.8978,325.3
145.9275,572.3
145.9387,655.1
145.9688,469.1
146.0009,625.8
146.0036,316.8
146.006,175.3
146.0067,195.7
146.0081,342.5
146.0123,2758.8
146.0187,19602.9
146.0262,36.6
146.0377,170
146.0807,388.6
146.0968,297.1
146.1295,322.6
146.1879,503.2
146.2348,383.4
146.2385,257.5
146.2868,331.1
146.2871,326.1
146.3152,270.5
146.4479,16.9
146.4785,492.3
146.574,179.7
146.577,128.7
146.6341,768.8
146.6707,172.8
146.6829,200.1
146.6885,39.1
146.692,20
146.828,371.6
146.8532,37
146.905,84
146.9127,265.4
146.9498,650.2
146.9736,23.3
146.9816,92561.9
147.0763,70170.3
147.1126,35218.9
147.1161,393.1
147.1383,590.2
147.1619,180.4
147.1634,199.7
147.1651,680.1
147.1796,19.5
147.182,527
147.2134,39.5
147.2398,192.2
147.2681,177.1
147.2923,199.6
147.2958,284.9
147.3345,18.9
147.3706,380.4
147.4034,608.8
147.4242,206.1
147.4413,240.4
147.4515,201.1
147.482,42
147.5134,280.9
147.6911,17.2
147.782,152.4
147.8307,480.6
147.8326,449
147.8471,24
147.9005,335.4
147.9044,303.5
147.965,486.4
147.9674,508.9
147.9769,175.9
147.9963,494
147.9987,581.7
148.0245,339.3
148.0318,222.1
148.0799,155.1
148.0973,19
148.151,552.6
148.1559,415.6
148.1725,180.2
148.1983,240.1
148.2158,290.8
148.271,333.9
148.2956,369
148.3097,211.8
148.3198,303.6
148.3283,240.3
148.5301,234.1
148.532,1538.8
148.5433,660
148.6162,203.2
148.6519,322
148.667,17.4
148.6986,235.9
148.7088,362.7
148.7302,337
148.7786,132.6
148.8457,21.3
148.888,181.9
148.9185,206.1
148.9347,313.3
148.9609,1701.2
148.9635,163.8
148.9816,292.3
148.9886,161.5
149.0002,356.1
149.0184,3451.1
149.0232,4130.1
149.0448,749.7
149.054,186.2
149.0596,266.5
149.0675,473
149.0735,720.3
149.1323,65.2
149.1398,280.4
149.1579,189.7
149.1744,518.9
149.2175,149.8
149.2562,217.6
149.3332,302
149.3352,22.9
149.3839,473.8
149.4149,16.9
149.4233,216.9
149.426,43.8
149.4345,292.2
149.4417,554.9
149.6466,432.4
149.8947,125.7
149.9205,424.6
149.9565,168.9
149.9679,483.4
149.9696,496.8
149.9762,23.5
149.9873,25.3
149.9927,6368.9
150.0136,5915.7
150.0266,94
150.1174,19.6
150.235,150.7
150.2495,555.1
150.2895,20.9
150.436,573.4
150.461,464.4
150.4673,479.6
150.4696,17.5
150.4745,21.6
150.5053,547
150.5634,172.6
150.7622,294.5
150.8791,36
150.8931,485.4
150.8953,538.9
150.9691,26.4
150.9766,22742.6
150.984,5788.4
150.9923,285.7
151.0089,613.4
151.0417,24
151.0477,1992.1
151.0666,206.8
151.0719,18
151.1774,179.4
151.2638,393.4
151.2705,175
151.3077,18.3
151.3362,18.1
151.5293,17.1
151.5429,147.9
151.5564,524.9
151.5891,282.4
151.5921,259.1
151.6334,121.5
151.641,293.9
151.7302,22.9
151.7696,603.8
151.7962,492.5
151.8056,225.5
151.9308,44.3
151.9508,756.2
151.9754,21.7
151.9873,185.3
152.0219,5818.3
152.0316,2793.2
152.0779,520.7
152.0816,286.9
152.1266,337.9
152.182,20.3
152.2469,531.5
152.2522,301.7
152.3179,432.2
152.3215,568.1
152.3466,16.8
152.348,296.1
152.4072,605.4
152.4239,275.3
152.4425,262
152.4597,216.9
152.5071,261
152.54,670.8
152.5611,859.7
152.6917,149.6
152.6944,243.8
152.698,458.7
152.7307,16.1
152.7349,528.1
152.7517,190.4
152.7693,370.5
152.8071,19.7
152.809,191.4
152.8171,278.2
152.8456,15.7
152.8531,190.8
152.919,336.8
152.9384,642.1
152.9741,454.1
153.0009,254
153.0142,16.9
153.0701,660.1
153.1628,147.6
153.1746,282.8
153.1816,21.9
153.2406,363.7
153.2578,241.6
153.2812,186.7
153.3047,536.1
153.3872,339.9
153.535,42.5
153.5577,428.9
153.6026,386.3
153.6485,480.1
153.6516,196.1
153.6741,197
153.685,681.5
153.7056,160.1
153.7768,390.4
153.8799,331.1
153.9106,283.9
153.9256,188.4
154.0111,162.5
154.0586,4133.4
154.0776,220.5
154.2437,210.4
154.2618,144
154.2633,285.8
154.2854,254.7
154.3861,702.2
154.3908,302.8
154.4389,20.8
154.4596,194.9
154.4646,702.8
154.4729,967.4
154.5629,20
154.705,205.6
154.7374,246.5
154.833,391
154.9184,366.6
154.9312,17.9
154.9581,479.6
154.969,329.4
154.9833,243.4
155.0425,1139.9
155.0488,182.6
155.0538,4391.8
155.0788,1354.1
155.1065,19.1
155.1127,411.8
155.127,532.2
155.1572,618.7
155.232,297.3
155.3757,145.6
155.5027,15.5
155.5195,17.8
155.576,159
155.5789,279.3
155.5953,166.2
155.6548,185.7
155.6976,474.4
155.7869,409.9
155.8481,303.9
155.8708,626.9
155.8714,621.7
155.8725,406.1
156.0183,153.8
156.042,1596.5
156.0507,17.3
156.0569,22.5
156.0766,69871.1
156.1575,36.9
156.2226,536.7
156.2429,244.2
156.2617,19.6
156.2789,290.1
156.2938,527.2
156.4214,195.7
156.4298,316.3
156.5182,49.5
156.604,333.3
156.6333,224.6
156.6455,659.7
156.6711,235.6
156.707,403.1
156.7706,19.8
156.8259,359.4
156.8998,241.9
157.0155,576.6
157.0371,168.2
157.0732,288.7
157.0799,1259.5
157.1954,792.6
157.2129,18.8
157.2646,367.4
157.297,207
157.303,19.5
157.3617,570.1
157.4388,235.9
157.4474,442
157.4699,20.3
157.4843,530.8
157.531,314.3
157.6113,42.7
157.6461,166.8
157.6583,17.5
157.754,236.8
157.8398,485
157.9432,17.2
157.9505,452.6
158.0121,694.6
158.0269,2914.7
158.0612,178.8
158.1361,388.2
158.1839,18.6
158.1976,17.7
158.2034,160.2
158.2768,163.8
158.3111,500.4
158.3284,16.3
158.372,411.4
158.4238,155.6
158.6414,174.2
158.6555,212.3
158.762,19
158.7926,154.7
158.828,18.4
158.8362,389
158.8461,754.3
158.9275,39
158.9373,193
158.9426,162.5
158.964,14788
158.9964,3694.9
159.0086,654.5
159.0131,344
159.0302,61.9
159.0645,182.1
159.0763,792.1
159.0914,61.1
159.1444,716.9
159.2018,380.7
159.2532,187.5
159.2804,141.5
159.3106,140.8
159.3486,315.3
159.3694,807.5
159.3744,316.7
159.387,701.8
159.4015,150.2
159.4308,17.7
159.4992,529.8
159.54,155.9
159.5731,363.8
159.6133,313
159.6625,341.1
159.7945,416.1
159.8561,191.7
159.8713,159.6
159.8833,130.5
159.9195,588.5
159.9683,18.5
159.9821,351
160.012,160.3
160.0227,39.8
160.0344,7320.8
160.0429,160.7
160.0603,36517.6
160.0629,119.4
160.0984,546
160.1099,197.9
160.1452,18.5
160.2349,147.3
160.2576,18.9
160.2946,550.7
160.3339,326
160.4632,269.4
160.4729,285.3
160.5268,18.8
160.5575,331.5
160.6209,364.1
160.6756,297.5
160.6879,728
160.6913,135.1
160.7056,361.1
160.7981,186.9
160.8819,20.9
160.9008,663.2
160.9108,817
160.9532,496.2
160.9922,96.5
160.9991,19.7
161.0339,740.8
161.0785,465.6
161.0962,25.4
161.1051,404.7
161.1194,175
161.1326,20.1
161.1497,344.7
161.1558,205.9
161.1998,17.8
161.2575,279.6
161.2946,206.1
161.3049,299
161.3266,310.7
161.3298,526.4
161.3565,501.6
161.3828,21.4
161.3968,35.7
161.4344,375.5
161.4859,199.2
161.5109,616.8
161.5505,275.1
161.6104,330.4
161.6324,421.5
161.6492,19.9
161.6581,221.4
161.698,20.4
161.8052,614.5
161.8262,216.6
161.8908,581.5
161.8933,312.5
161.8992,690.5
161.9503,125.3
161.9541,501.2
161.9643,293.5
162.006,699
162.0186,164.2
162.027,159.3
162.0324,627.7
162.05,12736.9
162.1209,294
162.1484,212.8
162.1735,221
162.1766,18.8
162.2082,502.8
162.237,358.1
162.2967,245.1
162.3425,549.7
162.3449,464.9
162.4054,180
162.4279,160.8
162.4326,16.8
162.4406,566.7
162.4602,687
162.4638,19.8
162.4843,307.7
162.6175,17.5
162.6494,211.2
162.6752,503.6
162.7597,146.7
162.7744,348.2
162.7819,42.1
162.8213,141.2
162.8299,268.2
162.8394,17.4
162.8775,574.6
162.8898,610.4
162.923,17.8
162.9555,2900.4
162.9764,728.2
163.0154,3487.4
163.0566,202.8
163.0604,359.2
163.0858,448.3
163.0927,170.3
163.1059,17.9
163.1131,360.7
163.1478,20.9
163.2297,235.3
163.26,350.2
163.3277,466.7
163.3348,158.1
163.3878,622.7
163.4055,266.6
163.46,166.2
163.4707,263.9
163.5195,215.5
163.5369,154
163.6241,293.5
163.6297,179.4
163.679,169.6
163.6874,639.4
163.6897,511
163.7488,343.7
163.8122,150.6
163.8193,154.6
163.8638,189.4
163.877,302
163.8853,22
163.9006,325.5
163.9512,222.8
163.9637,20
163.9815,146.7
164.0046,239.5
164.0081,613.7
164.0223,310.6
164.0293,7152.6
164.0526,425.3
164.076,20.7
164.0881,176.2
164.2117,606.2
164.23,236.3
164.3019,329
164.3859,17.4
164.4469,258.6
164.5803,634.9
164.5983,18.8
164.6626,201.1
164.7308,149.1
164.7676,527.9
164.7954,530.9
164.8038,229.2
164.8177,142.2
164.843,201.2
164.8745,339
164.9093,614.7
164.9204,2419.9
164.9299,9427.3
164.9351,689.3
164.9923,1430.1
164.9997,328.1
165.0166,254.9
165.091,229.2
165.1275,18.8
165.129,475.5
165.1364,256.2
165.1642,388.2
165.3621,17.8
165.4059,259.9
165.4272,600.4
165.526,412.8
165.6953,20.5
165.753,504.1
165.7944,16.5
165.8446,495.7
165.9006,267.5
165.9666,434
165.9788,1841.9
165.9876,5798.9
165.9949,1895.7
166.0255,18.8
166.1098,342.8
166.267,444.2
166.3172,16.2
166.4606,38.7
166.6419,395
166.7244,347.6
166.7347,751.7
166.7662,225
166.7719,410.5
166.8277,186.5
166.8757,372.2
166.9117,723
166.9506,9845.3
166.9791,77.5
166.992,372.4
166.9984,48.1
167.0138,156.9
167.0216,9552.9
167.0639,293.2
167.0735,228.7
167.0973,398.5
167.2611,826.8
167.3275,403.9
167.4857,20.5
167.503,194.1
167.5079,21.8
167.5811,46.1
167.6458,601.3
167.66,285.1
167.6938,616.8
167.7839,464.4
167.8089,209.4
167.8376,452.9
167.8587,18.6
167.89,527.6
167.9201,212.2
167.9226,218.8
167.97,197.9
167.9769,467.4
167.9852,175.3
167.9944,2906.9
168.0056,607.2
168.0317,36.3
168.0475,293.1
168.0723,17.3
168.1075,237.9
168.1649,305.8
168.2721,325.6
168.3985,181.9
168.4032,374.7
168.4111,536.8
168.4456,282.6
168.515,19.3
168.5362,278.8
168.589,179.3
168.6617,470.6
168.7708,323.9
168.8627,486.7
168.8899,532.2
168.9091,142
168.9249,156.2
168.9368,839
168.9408,135.6
168.9488,377.5
169.0583,64282.8
169.086,600.2
169.0948,1373
169.0972,1588
169.1276,158.5
169.1484,164.9
169.1664,229.8
169.1792,441.6
169.1862,586.2
169.1919,193.4
169.2231,212
169.2269,387.1
169.2335,20.4
169.281,131.8
169.3573,326.4
169.4127,186.4
169.4452,147.4
169.4983,178.7
169.5437,338.9
169.6547,455.4
169.7419,231.6
169.7653,215.1
169.7778,16.8
169.8028,160.3
169.875,23.5
169.9018,198.1
169.929,680.8
169.9411,327
169.9547,274
169.9718,581.1
169.9855,1158.1
169.991,26.9
170.0326,8029.2
170.0859,18.4
170.0923,36036.1
170.1203,247
170.1458,285.7
170.1496,277.6
170.1951,19
170.2328,151.6
170.268,213.6
170.3272,202.3
170.346,18.4
170.3824,463.2
170.3868,567.9
170.4208,388.3
170.4444,376
170.4491,410.9
170.4528,17.4
170.5288,331.7
170.5928,17.4
170.6469,270.1
170.66,400
170.7463,404
170.7889,338.4
170.8542,4150.5
170.881,593.6
170.8846,163.9
170.9139,185.7
170.929,668.9
170.9429,702.4
170.9564,215.9
171.0067,21.6
171.01,144.1
171.0166,1214.5
171.0279,368.1
171.0803,166.6
171.0891,19.1
171.1168,232.8
171.1352,268.9
171.1588,289.8
171.1947,206.5
171.2153,459.3
171.2446,172.7
171.2923,366.8
171.3241,582.5
171.3405,260.6
171.346,186
171.369,18.3
171.4093,401.4
171.457,20.6
171.4616,212.6
171.5193,295.5
171.5284,222.4
171.5328,466.2
171.5852,259.2
171.5897,351.5
171.6577,303.1
171.6687,340.5
171.8075,371.7
171.8147,16.7
171.8663,439.5
171.9116,410.1
171.958,216.9
171.9856,499.3
172.0281,490.3
172.0365,518.5
172.0532,383.4
172.1315,364.6
172.1768,173.1
172.2676,198.7
172.3916,381.1
172.4625,36.6
172.5459,524.7
172.5901,212.4
172.6159,146.4
172.7867,399
172.8038,21.4
172.8513,1467.7
172.8621,39.9
172.8712,331.1
172.8995,105.3
172.9673,860
172.9885,18.9
173.0048,22.4
173.0267,222.4
173.0611,208.6
173.0695,22.3
173.0966,708.4
173.1347,357.5
173.2226,568.1
173.2297,404.7
173.2796,307.2
173.4948,162.5
173.5505,308.8
173.5611,512
173.723,223.4
173.7347,186.2
173.7537,556.7
173.7718,494.5
173.7911,17.5
173.8523,400.6
173.8556,336.1
173.859,20.2
173.8697,205.6
174.0047,312.5
174.029,678.9
174.1048,271.6
174.1243,20
174.1456,17.4
174.1608,365
174.1691,737.1
174.2883,345.3
174.3711,332.1
174.4188,266.4
174.4713,550.1
174.5425,190.4
174.6034,298.4
174.7378,242
174.7767,406.9
174.8179,168
174.8424,219.4
174.85,122.2
174.8782,157.7
174.9001,600.4
174.9092,163.9
174.9145,17.5
174.9263,484.2
174.9379,8888.2
174.9687,1505.3
174.9827,508.2
174.9974,159
175.0054,19
175.0167,18.3
175.0259,868.7
175.0282,363.3
175.034,3108.8
175.0454,1419.1
175.1189,115930.9
175.1849,473.6
175.1907,387.3
175.2785,310.2
175.3695,250.9
175.3748,200.9
175.4409,235.6
175.4899,18.7
175.5334,778.8
175.5505,567.3
175.5773,313.1
175.5884,247.4
175.704,22.2
175.7382,19.3
175.8456,298.1
175.8904,18.2
175.9118,170.6
175.99,158.5
176.0015,657.1
176.0083,2258.9
176.0405,844.3
176.0657,15926.6
176.1029,938.3
176.1222,3244.7
176.2369,239.9
176.2713,171
176.2736,276.8
176.2998,22.5
176.3431,299.3
176.4751,536.3
176.5056,436.5
176.5841,467.6
176.6075,180.4
176.6202,650.6
176.6297,140.3
176.638,162.9
176.6756,197.1
176.7932,123.9
176.7965,126.7
176.8852,18.5
176.8939,850.5
176.9331,27.2
176.9812,168
177.0246,4860.8
177.0611,2715.4
177.0779,179.7
177.087,422.4
177.1866,689.8
177.1972,530.7
177.2021,303.8
177.2442,916.9
177.2805,219.7
177.2956,252.2
177.3381,783.1
177.3718,239.5
177.4331,604.8
177.4601,228.4
177.4807,313.1
177.5517,173.5
177.7674,532.8
177.7985,507.8
177.8294,16.6
177.8456,156.9
177.9712,153.7
177.975,364.9
177.9966,575.6
177.9984,540.1
178.0086,8532.5
178.024,8658
178.0587,5303.4
178.1112,350.5
178.1574,435
178.1786,450.4
178.264,139.3
178.304,19.7
178.3172,536
178.3762,431.1
178.3927,160.3
178.3973,364.1
178.4784,308.7
178.5049,209.4
178.5295,162.3
178.6873,20.9
178.6906,18.4
178.8105,538.8
178.8178,19.9
178.8927,220.1
178.9218,95
178.9688,176.3
179.0013,138.7
179.0201,298.3
179.0429,257.5
179.0619,288.5
179.179,666.2
179.316,338.4
179.3234,19.9
179.3332,250.1
179.3652,238.4
179.3926,375.7
179.4074,439.9
179.4585,154
179.4907,214
179.5088,339.6
179.5242,531.4
179.7368,129.8
179.754,457.5
179.7652,124.6
179.8175,22
179.8303,608.1
179.8722,17.7
179.88,24.2
179.8913,73.8
180.0033,7816.5
180.0105,105.3
180.0929,230.6
180.1426,128.3
180.1555,234.8
180.1693,21
180.1849,390.4
180.2248,21.1
180.3541,726.3
180.3597,24.2
180.3872,334.8
180.3994,277.6
180.4131,428
180.5576,414.3
180.58,496.2
180.6669,307.3
180.6804,554.9
180.6845,414.2
180.7008,665.4
180.7301,19.4
180.7376,319.3
180.7599,737.4
180.8139,547.7
180.8362,581.9
180.8604,136.2
180.8881,1853.3
180.8943,1738.1
180.9038,7537.3
180.9663,846.6
181.0265,580.5
181.0468,367.3
181.0647,5737.1
181.1143,211.8
181.1589,20.1
181.2195,555.1
181.2797,318
181.292,420.9
181.2997,147.6
181.3749,41.8
181.4568,490
181.473,131.5
181.5805,24.6
181.6282,174.5
181.654,161.3
181.7731,138.2
181.7967,310.4
181.8179,19.7
181.8548,353.2
181.8884,29.9
181.9469,574.3
181.996,18.7
182.0225,168.6
182.0424,23178.4
182.0703,611
182.076,174.2
182.1739,163.8
182.2411,227.5
182.3378,276.4
182.3703,248.4
182.398,187.3
182.4167,19.6
182.4229,17.7
182.4408,283.7
182.5001,343.9
182.5205,187.7
182.5865,656.2
182.6427,595.2
182.6566,174.6
182.6824,176
182.755,503.5
182.8836,89.2
182.9023,52.8
182.9055,281.9
182.9376,626.8
182.9531,19.1
182.9557,566
183.033,364.2
183.0441,260.1
183.1312,256.9
183.1741,18.9
183.3077,264.3
183.3265,628.1
183.4729,298.5
183.4774,122.5
183.5429,286.1
183.5878,370.6
183.6693,384.3
183.8121,283
183.8734,606.3
183.9091,150
183.9644,1561.7
183.9994,330.3
184.037,1602.8
184.0604,180.8
184.0651,439.3
184.0733,4893128.5
184.1096,838.5
184.1821,1251.1
184.2245,233.4
184.3324,756.9
184.3396,146.9
184.5648,19
184.6969,20.7
184.7148,321.8
184.717,378.4
184.7601,207.9
184.7779,586.9
184.7838,125.7
184.7862,883.5
184.7901,259.6
184.8347,18.3
184.8451,255.8
184.8683,339.9
184.9865,281.4
185.0322,78669.8
185.0702,10035.8
185.0766,232616.8
185.2364,163.1
185.3281,250
185.3401,604.4
185.3625,47.2
185.4008,585.5
185.4035,414.4
185.4155,278.1
185.5216,230.6
185.5479,321.5
185.6003,334.2
185.7871,214.6
185.7946,425.5
185.8072,435.6
185.96,952.7
186.0358,391.1
186.0775,29048.5
186.0813,170.3
186.1329,748.6
186.1723,238.8
186.2555,21.4
186.2607,284.7
186.2806,185
186.285,451.7
186.3284,165.8
186.3495,600.3
186.3678,254.6
186.5167,18.6
186.5242,665.8
186.5769,181.4
186.6413,160.5
186.7756,753.8
186.8004,323.1
186.8207,600.1
186.8602,432
186.8781,136.1
186.8862,306.1
186.8954,383
186.9119,2972.3
186.9145,26.5
186.9486,353.3
187.0303,1465.7
187.0353,512.6
187.0387,17.9
187.0576,2812.7
187.0731,161.5
187.0806,173.4
187.0981,759.4
187.1077,9335.3
187.1118,489.7
187.1331,25.3
187.1425,294.2
187.2602,550.3
187.3245,561.7
187.3473,495
187.3987,319.4
187.4268,182.3
187.5489,283.2
187.5532,536.4
187.6009,761.2
187.6303,337
187.6545,515.7
187.8415,42.1
187.8855,24.1
187.9357,151.9
187.9469,258.2
187.9773,182.9
188.0187,261.9
188.0528,233.2
188.2106,346.6
188.2278,20
188.2868,694.6
188.3089,235.3
188.4479,297.3
188.4948,129.8
188.7419,18.2
188.8263,288.1
188.8619,177.8
188.877,771.7
188.9379,331.1
188.9446,546.2
189.0024,213
189.0068,526.8
189.0209,73.5
189.0282,351.7
189.061,2123.1
189.0869,5541.8
189.102,157
189.1182,469.3
189.1489,464.9
189.2017,189.2
189.3844,206.7
189.4019,216.8
189.4133,42.5
189.4872,425.4
189.6086,147.5
189.8526,609.9
189.902,22.6
189.9809,17.9
189.988,182.8
190.0286,161.9
190.0495,270.6
190.0904,175.1
190.2065,40.7
190.2471,629.6
190.3256,171
190.3575,115.5
190.4235,317.1
190.5363,19.1
190.5499,305.6
190.8077,279.9
190.8531,46.5
190.8725,1429.4
190.909,492.8
190.9119,2475.5
190.9599,631.4
190.9749,20.6
191.0004,47.1
191.008,3063.5
191.0403,103690.6
191.0767,18351.2
191.1825,332.6
191.2469,298.1
191.2533,175
191.258,152.2
191.2847,203
191.3218,211.3
191.3382,441.9
191.3692,608.9
191.5598,16.9
191.5672,629.9
191.7682,215
191.8573,602.7
191.8632,188.2
191.8728,30.3
191.8806,17.9
191.9701,673.7
191.9968,653.3
192.0144,1219.1
192.0397,9509.9
192.0435,2096.1
192.057,444.5
192.2549,663.1
192.3623,161.1
192.3781,341.6
192.4127,17.4
192.5001,674.9
192.5588,234.2
192.569,181.6
192.6967,487
192.767,464.9
192.8892,16.7
192.9061,155.6
192.9107,92.7
192.9986,4112.2
193.0074,168.1
193.0157,92
193.0348,2176.6
193.0444,404.9
193.1168,19.4
193.3334,515.1
193.3388,167.5
193.3616,124.6
193.4125,155.3
193.4972,425.8
193.5001,152
193.5265,188.6
193.7096,501.6
193.7331,287.3
193.743,370.3
193.7659,668.5
193.7914,345.9
193.892,142
193.9061,198.3
193.9275,19.6
193.9983,439.3
194.0048,1405
194.0324,1670.4
194.0502,160.1
194.1129,20
194.13,159.2
194.1539,93.5
194.1761,21
194.1791,271.3
194.2491,283
194.2854,440.9
194.3263,19.6
194.3426,17.3
194.3626,216.8
194.4286,41
194.4514,162.6
194.4871,295.1
194.5721,366.7
194.7567,134.6
194.7616,486.4
194.8148,437.6
194.9038,382.4
194.9143,763.7
194.9644,436.6
194.9821,392.8
194.9976,472.7
195.0228,463.6
195.0443,675.9
195.0822,1161.7
195.0896,199.5
195.1128,268.3
195.1195,405.5
195.15,186
195.1574,230.2
195.187,499.6
195.256,150.1
195.4112,216
195.4281,197.1
195.4393,277.5
195.4549,332.3
195.5052,491.6
195.5417,396.5
195.6172,588.5
195.6522,222.8
195.6723,527.3
195.7066,231
195.7243,621
195.7351,172.5
195.7934,170.4
195.8752,24.9
195.8777,176.8
195.8845,550
195.9436,638.4
195.9591,404.4
195.9735,161.9
195.9775,469.4
195.9928,169.2
196.0016,330.9
196.079,120.5
196.1232,23.7
196.1581,187.5
196.1696,459.9
196.1797,171.1
196.2461,681
196.3782,546
196.409,159.1
196.4298,230.4
196.4546,352.3
196.5196,20.1
196.6669,20.8
196.707,394.9
196.7499,128
196.7887,369.9
196.8651,4045.7
196.8681,375
196.8778,2351.7
196.8975,23.3
196.9201,467.2
196.9288,482.6
196.9324,209.3
196.9375,463.5
196.9745,210.8
197.0438,24.7
197.1011,380.4
197.1094,486.2
197.1631,385.6
197.2236,372.4
197.2639,384.7
197.3528,17.2
197.4243,157.7
197.6125,387.9
197.6151,228.8
197.6377,470.5
197.6816,150.5
197.7237,16.4
197.8035,380.1
197.8907,87.8
197.9122,613.5
197.9432,296.3
197.956,329.3
197.9749,250.1
198.005,461
198.0849,11365.6
198.0955,216.7
198.1155,360.6
198.1658,427.4
198.1852,5044.5
198.1942,368.7
198.2136,18.4
198.2757,161.2
198.3213,354.8
198.3404,371.1
198.3953,746.3
198.3986,419.2
198.4147,679.3
198.5507,800.1
198.5556,257.4
198.5587,18.1
198.5974,224.2
198.6145,22.1
198.8543,88.9
198.8621,4789.2
198.8999,93.7
198.9156,264
198.9583,18.1
199.0044,183.5
199.0168,370.6
199.031,489.5
199.0361,262.4
199.0686,431.6
199.0761,412.4
199.0801,26.3
199.117,138.3
199.1698,412.2
199.1886,316
199.3412,39.9
199.3458,18.2
199.4037,411
199.4777,357.2
199.5038,175.1
199.5714,182.9
199.6023,342.6
199.6256,162.4
199.6794,17.1
199.7447,299.7
199.8058,538.9
199.8266,144
199.8713,173.6
199.9906,31810.6
200.0144,217.9
200.0406,13897.8
200.1176,515.6
200.1284,281.6
200.1533,136
200.2448,183.7
200.258,156.9
200.2809,230.9
200.2873,21.4
200.3361,12597.7
200.4201,704.6
200.523,18
200.7245,17.7
200.8514,21
200.8591,1650.4
200.8941,2325.4
200.9235,443.8
200.9923,20.1
201.003,245.9
201.0442,461
201.0563,261.6
201.1232,849
201.1961,627
201.2203,188.7
201.2297,502.2
201.3591,461.3
201.4374,337.6
201.5417,217.6
201.5503,583.9
201.5581,154.9
201.5665,574.1
201.5735,16.8
201.6595,141.2
201.6703,314.2
201.6795,316.9
201.7633,476.8
201.85,233.8
201.8646,321
201.8943,389
201.9474,325.9
201.995,53.7
202.0165,38.8
202.1107,305.3
202.1768,486.2
202.3099,335
202.3524,182.1
202.3811,445.9
202.4219,227.5
202.4321,435.5
202.4481,229.3
202.4888,156.1
202.5433,156.5
202.5824,332.3
202.5862,459.5
202.6652,19990.6
202.7334,552.7
202.7493,356.3
202.7606,141.1
202.8182,345
202.8728,73
202.8951,205.5
202.9051,300.6
202.9662,413.2
203.0316,432.1
203.0526,1212743.8
203.0767,8701.5
203.1028,168.5
203.1082,139.2
203.1304,253.1
203.1881,373.9
203.2462,364.6
203.3069,650.9
203.4125,373.8
203.4978,400.3
203.5162,756.5
203.5483,202.8
203.5715,560.9
203.8702,19.3
203.8784,18.5
203.9657,189.9
203.9727,595.6
204.0243,38683.4
204.0317,90.7
204.0407,182.7
204.0559,57812.5
204.0688,316.9
204.0866,1252.3
204.1107,672.8
204.1486,192.7
204.2616,244.9
204.3404,329.9
204.3728,163.9
204.4668,19.1
204.5253,146.5
204.5416,18.4
204.5616,228.8
204.6409,671
204.7093,476.4
204.7238,220.5
204.742,17
204.773,193.1
204.8144,224.9
204.8301,20.1
204.8541,377.5
204.8657,316.8
204.8729,96.4
204.8836,377.7
204.8886,1163.8
204.9408,318.3
204.951,630.5
204.9776,263
205.0157,22.8
205.0261,19.7
205.0346,233.6
205.0568,8650
205.0834,22
205.0904,18.9
205.1617,18.8
205.2302,17.4
205.2648,494
205.3114,41.2
205.3335,465.1
205.3991,379
205.458,342.6
205.4993,286.9
205.5279,258.7
205.5812,178.6
205.5947,502
205.6064,163.3
205.6354,155.7
205.6496,433.5
205.6728,563.1
205.6864,140
205.6906,403.4
205.6935,380.7
205.719,446.5
205.7954,176.6
205.8187,692.3
205.8607,511.3
205.8889,59.2
205.9286,18.7
206.0421,119.5
206.0475,25.8
206.0553,656.9
206.1122,164.4
206.2007,703.9
206.2629,233.9
206.323,19.9
206.3635,379.7
206.3893,200.3
206.5532,620.3
206.5613,207.6
206.5825,315.1
206.5909,408
206.7014,615.7
206.7437,288
206.8395,722.1
206.8592,374.7
206.8683,24.5
206.8877,335.7
206.8939,16251.4
206.9088,498.2
206.9168,305.5
206.9821,1563.9
206.9979,107.6
207.0142,82719.1
207.0442,2291.9
207.0507,9483.1
207.0719,238.2
207.0897,259.6
207.1659,171.9
207.197,548.6
207.2811,497.5
207.2988,225
207.3385,515.1
207.3433,795.3
207.6117,169.6
207.6779,20.7
207.8551,344.9
207.8864,78.8
207.8894,323.8
207.9512,341.1
207.9905,508.8
208.0136,2676.9
208.0176,2577.1
208.0876,503.7
208.1206,341.9
208.1629,251.3
208.2185,223.5
208.2244,141.7
208.2431,255.6
208.2646,154.6
208.3025,684.7
208.3973,151.9
208.4142,18
208.4758,305.6
208.564,152.8
208.7925,760.5
208.8441,154.1
208.8743,330.8
208.8831,3900.5
208.8909,9569.2
208.9063,22.4
208.9116,24.6
208.932,184
208.9725,525.4
209.0123,3063.2
209.0937,291.6
209.1288,177
209.2785,164.6
209.3374,304.4
209.3622,422.3
209.4078,439.3
209.5025,719.7
209.5583,291.8
209.5791,599.2
209.6098,151.5
209.8829,21.4
210.6547,215.2
210.6768,169.1
210.711,226.9
210.7214,209.1
210.7276,17.3
210.7368,357.8
210.7914,219.2
210.8837,45.9
210.8883,1055.8
210.9482,50.1
210.9508,194.4
210.9601,163.5
211.0075,837.9
211.0219,162.6
211.0389,19.4
211.0442,159
211.0563,173.5
211.0678,248.1
211.1104,209.9
211.1322,228.5
211.2016,227.3
211.2265,163.2
211.2686,339.3
211.3024,339.5
211.3354,516.5
211.3488,32420.1
211.3521,30832.7
211.3537,32460.6
211.3558,27709.5
211.3585,27222
211.3617,17422.2
211.3703,347.6
211.39,216
211.4057,764.5
211.422,504.9
211.4699,182.1
211.5661,177.1
211.9283,480.7
211.9366,21.8
211.9403,38.7
211.9668,60.8
211.9971,600.6
212.0741,77.7
212.0931,18.8
212.2735,323.7
212.2903,202
212.3048,199.2
212.3539,582.6
212.457,234.8
212.4631,387.9
212.5667,427.4
212.586,165.7
212.6147,366.4
212.6316,41
212.6409,733.8
212.703,181.7
212.7232,606.3
212.7267,536.9
212.7631,638.1
212.7957,415.1
212.8009,191.4
212.8392,2430.1
212.8792,20.8
212.9731,480.6
212.9783,1504.6
213.0596,392.8
213.0632,382.3
213.0749,1226.6
213.1361,685.8
213.1638,210.5
213.2292,17.2
213.5814,268.7
213.6465,233.7
213.6675,594.5
213.7227,477.3
213.7386,523.3
213.8162,242.2
213.9019,41.1
213.9541,172.8
213.9621,2843.3
213.9845,149.6
214.0588,20077.8
214.0738,211.8
214.0897,1356.5
214.0963,768.1
214.1484,171.2
214.301,263.8
214.3467,131.7
214.3788,180.8
214.4801,693.2
214.4974,24.3
214.5141,224.1
214.5925,555
214.8361,1178.6
214.8655,359.2
214.8734,403.6
214.8841,20.7
214.9098,419.4
214.9175,346.2
214.9654,120.7
215.0498,266.8
215.0929,30.9
215.1257,266.4
215.134,332
215.1698,340.8
215.3238,285.2
215.3433,629.3
215.3831,635.4
215.3869,17.7
215.5071,341.1
215.5269,273.5
215.5911,445.7
215.5981,259.5
215.6697,212.7
215.7335,753.7
215.7832,19.2
215.8305,205.2
215.8719,18.8
215.9017,322.8
215.9648,591.5
215.9786,154.4
216.0054,263.1
216.0146,9807.9
216.1287,475.2
216.2557,166.8
216.2723,309.3
216.2954,19.8
216.3,396.5
216.3042,182.6
216.3119,1179.2
216.3557,138.8
216.3624,391.1
216.3902,245
216.4035,178.8
216.4604,218.1
216.4936,317.3
216.6625,166.3
216.7034,250.7
216.7265,393.1
216.7446,37.9
216.7988,217.7
216.8248,151.4
216.8718,19
216.8887,19.1
216.897,236.5
216.9054,272.3
216.9227,46877.6
216.9516,19.1
217.0031,426.5
217.0275,43
217.056,816
217.0819,335.4
217.1649,18.3
217.1954,18.4
217.2304,392.8
217.2861,360.3
217.3187,388.3
217.4209,234.1
217.4499,420.4
217.5044,17.3
217.5321,745.8
217.7575,691.5
217.815,43.2
217.8574,20.5
217.9231,458.5
217.9366,178.6
217.9723,342.2
218.1,415.9
218.1585,671.3
218.2491,222.6
218.2522,18.1
218.3272,472
218.4392,18.4
218.4703,640.8
218.4814,268
218.4876,18.1
218.6014,591.5
218.6323,246.5
218.6959,564.2
218.7235,171.4
218.7472,124.7
218.7531,260
218.7979,16.5
218.8071,203.2
218.8188,237.8
218.8621,513.5
218.8675,738.9
218.9045,390.5
218.9198,13776.4
219.0265,1333326
219.0315,939.3
219.056,384.4
219.0828,8702.3
219.0942,274.3
219.1072,308.9
219.127,208.3
219.14,200.2
219.1493,642.4
219.2769,20.2
219.3553,575
219.4385,265.9
219.4453,443.5
219.7534,144.8
219.8094,220
219.9047,18.9
219.9285,584.8
220.0216,361
220.0299,72323
220.0667,9869.4
220.1405,154.1
220.1437,438.1
220.1583,190.6
220.1672,306.3
220.1852,408.7
220.2747,18.9
220.2903,156.7
220.44,21
220.6243,688
220.6354,189.7
220.7025,19.3
220.706,19.7
220.8079,186.3
220.8836,50.1
220.9068,411.1
220.9343,24.1
220.9726,215.5
220.9967,409.4
221.0204,549.7
221.0247,81792.1
221.0308,9089.9
221.051,234.4
221.0574,252.3
221.0644,528
221.0697,528.8
221.0844,3306.6
221.1422,330.6
221.2084,388.5
221.2382,20
221.3597,407.8
221.4247,151.4
221.4538,156.4
221.5164,381
221.5536,350.9
221.5598,168.5
221.5824,337.8
221.6098,129.4
221.639,302
221.66,300.8
221.7226,202.6
221.7439,178.9
221.8173,251.3
221.8877,383.9
221.9273,606.3
221.956,65
221.9835,651.8
221.9902,799.7
222.0077,124
222.0257,250.3
222.048,422.4
222.0838,550.7
222.1913,314.9
222.2237,166.9
222.2383,269.7
222.4135,458.7
222.5118,216.2
222.5251,443.9
222.5341,191.7
222.7055,514.9
222.7719,309.7
222.8229,225
222.8515,453.6
222.8633,18.2
222.8677,15282.8
222.8733,224
222.8988,636.4
222.9304,215.4
222.9537,961
222.9882,9332.2
223.0032,52.6
223.0243,535.8
223.0272,74.5
223.0506,392.8
223.0637,250.3
223.0812,172.5
223.1033,289.4
223.2425,533.3
223.2518,366.8
223.2975,169.6
223.4969,218.3
223.5049,544.5
223.5677,173.6
223.5738,22.6
223.6189,163.6
223.6456,221.7
223.7312,467.9
223.7403,591.2
223.8141,396.4
223.8212,753.4
223.9264,805.2
224.0296,987.3
224.0503,773.4
224.1073,174
224.2509,21.9
224.2595,515
224.2644,685.5
224.3028,372.3
224.4827,165.9
224.5552,185.6
224.566,224.1
224.8144,256
224.8648,9941.3
224.9038,149
224.9136,21.4
224.9275,65.7
224.958,405.8
224.997,22.9
225.0396,407.8
225.0431,327.8
225.0546,22797.7
225.0847,204.9
225.151,259.6
225.1709,443.5
225.2406,442.9
225.2839,431
225.3901,475.1
225.4277,18.4
225.4436,551.9
225.4464,248.4
225.4813,367
225.544,166
225.638,829.9
225.6829,200.7
225.8706,27.2
225.9613,432.7
226.0027,476.3
226.0062,2600.7
226.024,6321.6
226.0449,4895.6
226.0521,336.1
226.0553,667.8
226.0579,194.5
226.3015,388.5
226.315,474.1
226.3994,166.7
226.4075,603
226.4202,201.7
226.4708,530.9
226.4891,21.9
226.5104,730.4
226.5524,681
226.6747,609.9
226.8031,867.4
226.8065,256
226.8488,21.6
226.8624,439.1
226.8784,36.1
226.9023,834.5
226.919,232.5
226.9515,56650.3
226.9569,336.3
227.01,686.6
227.0223,129.7
227.034,1360.2
227.0863,222.4
227.1128,235.3
227.2491,408.6
227.2566,203.1
227.26,144.9
227.4429,206.4
227.5664,403.4
227.7299,511.3
227.752,318.9
227.7754,160.7
227.7968,743.1
227.828,193.3
227.955,873.4
227.9616,308.6
227.9781,570
228.0004,138
228.1184,608.7
228.137,19.6
228.3612,738.8
228.4114,602.4
228.5282,337
228.5646,212.2
228.5763,733.1
228.6208,18.4
228.7082,419.1
228.7117,216.8
228.8892,84.8
228.9601,206.5
228.9663,19.6
229.0011,24.9
229.1183,627.3
229.156,416.7
229.3428,155.7
229.4542,152.1
229.6355,208.4
229.6661,683.2
229.6852,237.7
229.7772,712.9
229.8362,184
229.9123,24.3
229.93,18.4
229.9569,10248
230.0166,353.1
230.0425,417.4
230.113,1022.5
230.1374,634.6
230.236,180.2
230.245,46.1
230.3332,17.2
230.382,346.8
230.4734,24.6
230.6096,641
230.7006,170.2
230.7709,170.1
230.89,1151.8
230.9543,354.7
230.9603,474.1
230.9696,432.7
231.2405,159.8
231.2705,243.5
231.3479,147.9
231.5745,19.6
231.6461,166.8
231.7191,172.4
231.7665,147.7
231.831,663.6
231.9529,181.9
231.9574,344.8
231.9609,18.7
232.0232,252.7
232.0617,279.3
232.0723,414.2
232.1654,378.8
232.1954,557.8
232.2004,256.4
232.2736,458.3
232.2775,379.6
232.3237,154.2
232.3331,516.8
232.5104,438.8
232.6236,337.2
232.7764,18.1
232.8127,68.9
232.8387,406.4
232.8454,19.9
232.8684,19.5
232.8831,282
232.8966,46526
232.9785,181
232.9851,485.4
233.0509,7205.9
233.0697,415.1
233.0785,284.1
233.1489,435.5
233.1676,206.9
233.2194,178.9
233.2994,19.1
233.3968,197.9
233.5214,416.4
233.611,141.2
233.6331,306
233.6973,431.3
233.7819,145.9
233.8185,883.4
233.9529,140.1
234.0726,339.3
234.1237,608.5
234.1577,170.1
234.1876,470.2
234.2635,176.8
234.31,179.6
234.3845,164.3
234.403,163.4
234.5064,948.2
234.558,266.1
234.5889,567.7
234.6304,392.3
234.7872,204.8
234.8104,756.6
234.8359,237.7
234.8831,24.9
234.8935,12228
234.8997,113.9
234.9814,2866.4
235.0073,305.3
235.0362,18.2
235.0485,18.6
235.0567,7650.7
235.0665,1652.9
235.0925,6244.4
235.102,771.5
235.3694,221.3
235.446,169.7
235.5086,233.2
235.5159,168.2
235.5934,18.3
235.6787,22.5
235.7574,45.7
235.8254,371.6
235.832,325
235.8415,19.2
235.983,17.5
236.0166,263.5
236.0219,389.9
236.0353,189.9
236.0408,6563.1
236.0716,53286.9
236.1016,819.3
236.1322,474.3
236.1608,168.1
236.2264,548.4
236.2558,401.7
236.3015,248.3
236.4431,236.6
236.5519,262.9
236.5793,229.6
236.6615,499.8
236.7413,24.2
236.7935,234
236.8451,166.3
236.8607,508.4
236.878,564
236.8882,488.9
236.9069,496.9
236.9172,17.7
236.9511,512.9
237.0276,35.9
237.04,212.5
237.0526,985.1
237.0607,168.5
237.0651,366.2
237.075,2532.4
237.2177,39.7
237.262,203.1
237.3056,138.8
237.3209,290.5
237.3877,18.2
237.3989,155.5
237.5134,198.6
237.5288,35.4
237.5355,251.6
237.7531,497.3
237.7992,150.4
237.9362,158.7
237.9878,343.4
238.0228,19.1
238.0674,978
238.0766,40.7
238.0943,381.1
238.1478,346.4
238.153,352
238.2561,207.7
238.5046,495.1
238.7355,336.8
238.8417,6999.7
238.853,1054.9
238.9322,846.6
238.943,39.7
238.9918,39.2
239.009,4749.6
239.0476,593.4
239.055,379.1
239.0589,22.6
239.0681,1035.4
239.3968,246.3
239.6329,451.2
239.6513,148.9
239.6657,136.9
239.8093,684.1
239.8371,398.5
239.8543,185.7
240.0033,375.8
240.1,250.9
240.2404,503
240.2708,19.1
240.2933,237.6
240.4094,570.9
240.5004,433.8
240.6243,193.5
240.7132,21.9
240.7959,611.6
240.8243,511.1
240.8387,3780.2
240.8613,181.2
240.9044,335
240.9333,20.7
240.9545,2842.2
240.9672,2457.6
241.0467,580.4
241.1021,160.3
241.1206,290
241.2018,506.1
241.2137,18.4
241.3324,174.9
241.3604,263.3
241.4372,288.7
241.5291,566.6
241.6756,274.3
241.7711,249.7
241.7935,394.9
241.8454,544.3
241.9404,18.6
241.9591,19.7
241.9774,74.1
241.9981,1234.5
242.019,1193.2
242.055,380.4
242.1126,19.8
242.1605,541.7
242.1937,402.2
242.3153,490.4
242.3491,22.3
242.4434,21.2
242.4846,22
242.6439,368.2
242.7016,717.6
242.8131,98.7
242.9142,20.4
242.9254,35304.9
242.9306,697.2
242.9758,20.2
243.0063,30.8
243.0325,628.3
243.053,10013.5
243.0652,4069.5
243.1181,645.7
243.1288,355.3
243.1493,20.4
243.4281,21
243.454,286.7
243.568,152
243.7289,172.2
243.7627,632.4
243.8184,370.5
243.8467,153.6
243.851,408.9
243.8834,332.7
243.9418,143.3
243.9726,2150.9
244.013,24.3
244.0289,141.2
244.0498,271.5
244.0901,424.7
244.1436,418.4
244.3993,136.5
244.4937,168.6
244.5059,229.6
244.621,374.3
244.6465,20.8
244.7148,491.4
244.8066,225.3
244.8143,473
244.8707,5680.7
244.8777,255.2
244.9237,2089.9
244.9724,266.7
244.9761,117
244.9903,450.2
244.9993,375.4
245.0745,967.7
245.117,454.9
245.1268,778.4
245.2075,273.7
245.2545,670.5
245.2767,17.8
245.323,644.7
245.3581,451.5
245.3811,233.5
245.4285,233.3
245.4704,237
245.6715,476.3
245.7927,227.5
245.8139,526.2
245.8417,20.6
245.8532,356.7
245.8653,42.2
245.9491,675.3
245.9686,23.3
246.0009,32.1
246.1809,720.3
246.2836,19.7
246.5661,17
246.7208,526.6
246.7579,323.8
246.7832,751.2
246.8075,327.9
246.8624,1082.5
246.896,574.2
246.899,45.3
246.9196,32.2
246.9478,277.6
246.9515,2293
247.0186,43.4
247.0664,576.6
247.0716,586.2
247.0926,1134.7
247.1185,158.9
247.1245,22.8
247.5282,139.9
247.5452,169.3
247.5691,21.3
247.5989,416.8
247.6587,239.5
247.7511,195.6
247.865,19.3
247.8994,17
247.9677,26.6
247.9833,869.2
247.993,461.1
247.9994,227.1
248.0107,530.9
248.029,19.4
248.1241,20891.9
248.2247,513.2
248.3263,596.8
248.4035,384
248.4438,19.4
248.717,547
248.7855,192.5
248.8083,20.6
248.8283,168.4
248.8591,453.8
248.8631,38.3
248.8706,15721.5
248.9007,121.2
248.916,22.2
248.9417,154.6
248.9481,117.1
248.9593,1875
248.9863,367
249.0155,1501
249.0324,347.9
249.0611,15407
249.1094,222
249.1276,1363.1
249.267,702.5
249.3135,250.2
249.3237,39.9
249.3421,18.5
249.4088,160.5
249.4126,381
249.4173,289
249.522,162.6
249.5305,272.9
249.5421,536.5
249.547,327.3
249.5786,204
249.6123,527.6
249.7376,385.7
249.8856,25.4
250.0371,230.9
250.0406,278.9
250.0444,188.5
250.0635,563.5
250.2045,241.5
250.2798,336.8
250.3382,20.2
250.6511,430
250.8415,160.7
250.8674,2472.3
250.8938,289.7
250.9202,23.6
250.9553,1014.9
251.0369,23.4
251.1023,279.9
251.1431,25.7
251.1623,449.1
251.3324,220.3
251.3976,240.7
251.4278,311.9
251.5516,724
251.6356,328.6
251.8079,166.3
251.8213,21.8
251.8332,242.1
251.8641,300.4
251.8949,156
251.9799,408.9
252.0176,19.5
252.0368,230.3
252.0455,101210.8
252.1047,28.7
252.1774,22.7
252.2035,167.3
252.3193,217.8
252.3379,438.7
252.4722,542.8
252.5143,333.4
252.6056,463.8
252.6233,37.9
252.6708,288.4
252.7306,135.1
252.8419,259.9
252.8535,518.4
252.8816,20.3
252.917,388.6
252.9512,238.3
252.9565,43.9
253.0131,669.2
253.0488,4394.4
253.2984,172.7
253.4162,19.4
253.4193,330.6
253.5047,266.7
253.5319,184.5
253.546,164.2
253.5503,745
253.5739,184.7
253.6335,211.4
253.8069,178.8
253.9185,826.6
253.9873,210.9
254.0434,2752.2
254.1202,166.8
254.3065,267
254.3579,456.8
254.3982,210.1
254.4455,692.3
254.5075,169.9
254.5712,17.7
254.6339,446
254.6786,342.6
254.7132,18.1
254.7601,416
254.8158,1298.4
254.8237,7080.2
254.8997,614.5
254.9589,133.2
254.9858,127.4
255.0329,27613.5
255.0379,2644.5
255.1219,21.6
255.1313,210.2
255.2924,460.5
255.3169,472.3
255.4641,230.5
255.8885,706.4
255.9741,17.6
255.9781,1211.6
256.0033,1589.2
256.1599,568.8
256.3848,17.5
256.4838,19.9
256.5481,375.4
256.6023,334.8
256.6587,269.4
256.8021,166.7
256.8124,485.2
256.8208,7702
256.8304,233.3
256.852,19.9
256.8668,181.9
256.9285,1100
257.0486,7788.3
257.065,990.3
257.0744,52104.1
257.0894,468.8
257.3309,185.2
257.3674,147
257.5249,338
257.613,20.4
257.6176,191
257.6591,20.4
257.6654,297.4
257.804,237
257.8495,514.8
257.9288,21.1
257.9364,611.7
257.9519,232.3
257.9571,20.5
257.9876,19.6
257.9931,362.6
258.0119,426.3
258.0299,135.5
258.0738,19.8
258.0774,1422.6
258.1102,18943
258.1336,19.8
258.149,184.3
258.2208,602.9
258.3627,227.7
258.3785,272.6
258.3947,145.2
258.5083,804.8
258.6222,380.6
258.6689,508.7
258.6844,20.6
258.7156,190.8
258.7284,406.9
258.8083,24.6
258.8178,3054.7
258.8393,169.8
258.8622,20.5
258.8994,7713.1
259.0424,526.1
259.0988,589.3
259.128,402.2
259.1613,190.5
259.3388,316.8
259.3645,282.2
259.3696,256.7
259.4192,596.8
259.5351,18.2
259.5444,404.5
259.5532,18.8
259.5564,780.5
259.5832,401.4
259.6258,170
259.6412,403.9
259.6693,283.4
259.84,313.1
259.8465,599.7
259.8635,452.5
259.8808,18.8
259.9249,39.4
259.9737,379.1
260.0405,164.2
260.0521,233
260.0944,256.9
260.1673,187.8
260.1858,167.6
260.2916,555.1
260.4629,195.8
260.465,201.6
260.5214,167.7
260.7629,714.9
260.7995,150.9
260.8445,3701.6
260.8552,462
260.8783,54.9
260.8977,1230.7
260.9117,188.2
260.9166,300
260.9489,2452.8
261.0294,349.3
261.0449,848.7
261.2303,228.9
261.2696,284.9
261.3175,520.7
261.328,194.4
261.386,249.3
261.398,363.1
261.4434,399.4
261.6277,165.1
261.9111,371.9
261.9278,20.9
262.0046,179.6
262.0657,533.6
262.0814,1789.2
262.1036,21.1
262.1072,18.6
262.1635,887.4
262.2063,358.5
262.3809,492.4
262.5485,461.2
262.6512,583.4
262.6569,244.4
262.666,354.5
262.7035,191.9
262.7813,216.8
262.839,27
262.8952,25.3
262.9576,19.7
263.0037,18.5
263.0121,204.2
263.0438,16.9
263.0579,626.4
263.073,186.1
263.1337,271.9
263.4308,417.5
263.4399,392
263.512,634.6
263.5385,165.8
263.5474,659.3
263.5879,420.7
263.6248,337.4
263.7182,327.1
263.7729,494.4
263.8101,28.7
263.925,43.6
263.9852,562.2
264.0771,254.9
264.1421,620
264.2677,285.6
264.2958,275.3
264.492,340
264.5153,508.6
264.7663,363.8
264.7913,525.3
264.8445,4071.9
264.8525,4556.4
264.8731,615.2
264.9049,451.7
264.9334,4967.2
264.9773,22.1
264.9883,11521
265.0351,9832.4
265.0474,1613.9
265.1607,179.5
265.2154,238.4
265.5253,357.4
265.629,387.7
265.906,530.2
265.9139,169.2
265.9278,166.9
265.9623,396.2
265.9781,422.7
265.9933,53.6
266.0684,1006
266.1163,238.7
266.1655,498.1
266.2082,168.3
266.3016,638.7
266.4652,19.4
266.4729,518.6
266.5958,356.7
266.609,19
266.6131,17.3
266.8143,20.4
266.8303,21.7
266.8425,586.9
266.8497,4215.4
266.9588,67.5
266.9739,240.1
266.9839,574.6
267.0361,308.7
267.1313,491.3
267.1637,841.4
267.2965,672.7
267.3962,189.5
267.404,198
267.4205,567.7
267.6311,586.3
267.647,479.4
267.657,410.5
267.7181,17.4
267.8662,24.4
267.9136,206.2
267.9735,705.5
267.9938,615.3
268.0029,19.8
268.0081,45.9
268.0171,168.9
268.0292,485
268.1476,132.3
268.1703,338.9
268.262,475.6
268.3256,536.1
268.5932,274.1
268.6186,520.3
268.695,277.3
268.7947,326.4
268.8376,265
268.8464,980.3
268.87,661
268.9729,20.5
268.9787,85.4
268.9852,271.7
269.0112,271.6
269.02,313.7
269.0282,476.1
269.0329,28.9
269.0369,182.9
269.0449,13904.1
269.0485,44705.5
269.2606,328.6
269.3282,277.5
269.6665,429.3
269.928,151.8
269.9517,19.5
269.9894,290.2
269.9939,1160.7
270.0084,442.8
270.0247,12770.6
270.0472,15889.8
270.1277,425.4
270.145,1954.6
270.2336,598.8
270.46,380.7
270.4676,216.7
270.5466,288.2
270.548,309.7
270.5498,206.4
270.634,606.6
270.7424,168.6
270.7977,2781.8
270.8285,24.2
270.8642,405
270.9679,18.8
270.9778,7676.7
270.9962,690.6
271.028,994.7
271.0506,105.3
271.0901,2250.7
271.1282,161.9
271.1659,340.9
271.2394,618.7
271.2531,754.4
271.3515,49.1
271.3763,194.1
271.3957,24.2
271.4791,204.5
271.7208,748.4
271.7319,40.7
271.7776,559.7
271.9071,29.9
271.9517,932.7
271.9725,536
271.9969,218
272.0206,317.5
272.078,21.8
272.1068,183.5
272.1866,318.6
272.2256,19.1
272.2492,680.4
272.263,348.3
272.2774,39
272.3098,365.8
272.4032,20.1
272.414,617
272.5571,210.7
272.6434,345
272.782,348.4
272.7947,3787.3
272.8239,41.7
273.0014,384.7
273.0484,4174.8
273.0744,462.6
273.1362,328.8
273.1566,678.3
273.2635,355
273.2924,479.4
273.2999,594
273.3375,343.3
273.4128,188.6
273.4451,19.5
273.4921,21
273.5073,581.2
273.7211,334.1
273.7322,293.1
273.7762,443.3
273.7905,468.4
273.8506,420.6
273.9411,240.7
273.9624,19270.4
273.9747,563.9
273.9866,354.5
274.0685,25.4
274.0772,169.1
274.0923,2765.5
274.5527,20.1
274.5759,23.6
274.591,47.9
274.6933,568.1
274.6984,262.2
274.7918,1118.9
274.8022,131.3
274.8629,225.5
274.8962,168.1
274.9179,42.6
274.9645,254.6
275.0158,270.9
275.2041,243.5
275.2529,19.5
275.2647,174.3
275.2725,410
275.2836,404.7
275.3042,350.5
275.3112,727.7
275.3409,347.5
275.3828,295.1
275.4825,594.2
275.5404,172.3
275.5522,374.4
275.5799,20.1
275.7037,521.9
275.7094,263.1
275.8053,196.8
275.8351,206.1
275.9215,495
275.957,19.5
276.0038,19.9
276.0532,312.9
276.3314,348.2
276.3455,17
276.4335,805.1
276.4514,138.8
276.6014,360.7
276.7959,668.4
276.8025,32.2
276.8188,82.7
276.8402,202.9
276.8593,449.6
276.8896,207.5
276.91,22.6
276.9229,2144.8
277.1163,499.4
277.1801,190.8
277.4393,186.5
277.4997,554.1
277.6578,278
277.6982,334.4
277.7595,155.6
277.8241,652.3
277.8375,20.4
277.8609,462.1
277.8732,210.8
278.0189,180.6
278.0597,153.5
278.1253,302.5
278.182,749.6
278.2407,545.5
278.5801,281
278.8468,135.4
278.8859,206.7
278.8927,361.5
278.9816,339.9
278.9873,293.7
279.004,1106.9
279.0564,30835.6
279.0795,21
279.2875,474.3
279.4449,680.8
279.6991,18.4
279.8833,216.2
279.8956,208.2
279.9127,1813.2
279.9182,276.1
279.9204,253.8
279.9224,246.6
279.9276,18
280.0071,158.5
280.0117,601.9
280.0154,77.9
280.0321,166.4
280.0508,157.5
280.0592,194.6
280.0913,700.3
280.1118,151.5
280.2647,282.5
280.3125,601.5
280.3536,340.2
280.5091,604.7
280.5642,160.3
280.7914,533.3
280.813,133.2
280.8264,1582.9
280.9064,414.8
280.9424,647.3
280.9505,347.6
280.9621,1892.5
280.9721,381.4
280.9944,45
281.0098,1322.3
281.0513,2465.6
281.1562,380
281.4432,359.3
281.4566,377.5
281.4836,571.6
281.5646,19.9
281.589,807.4
281.6009,20.7
281.6557,160.8
281.8724,20.4
281.9052,28.9
281.9732,24
282.0038,379.7
282.0144,50
282.0226,363.8
282.051,295.5
282.0647,376.5
282.2029,382.4
282.2819,21.4
282.4237,339.5
282.4569,609.4
282.49,24.5
282.5736,178.6
282.8086,28
282.8235,3843.8
282.8821,147.9
282.9,18.2
282.9219,194.9
283.028,484.7
283.048,136.7
283.0576,841.2
283.1149,441.1
283.1354,29
283.2342,141.6
283.2635,83
283.2725,405.1
283.3704,308.9
283.5249,456.6
283.5287,479
283.6754,258.8
283.7682,206.9
283.8169,50.3
284.004,95.7
284.0244,108.6
284.0633,657.5
284.0853,20
284.2096,21.7
284.3223,313.2
284.3819,313.4
284.4214,230.5
284.4773,18.1
284.4815,382.5
284.4946,151.2
284.5436,359.8
284.706,739.4
284.9093,710.3
285.0094,53.4
285.0227,440.1
285.0579,131.8
285.1891,941.8
285.2426,24.5
285.3592,229.9
285.4474,165.2
285.4685,230.3
285.6631,245.1
285.7498,41.5
285.7971,325.9
285.8201,38.1
285.8761,264.5
286.0047,153.8
286.0195,4214.6
286.1233,168
286.137,487.9
286.2175,471.8
286.3437,167.6
286.3492,160.3
286.6401,42.5
286.6718,368.4
286.6828,244.9
286.7194,342
286.7636,236
286.7718,2210
286.8033,203.7
286.835,828.7
286.9518,3553.6
287.0229,264.8
287.0385,339.2
287.0552,23226.2
287.1001,225.4
287.1689,206.5
287.1862,281
287.2691,42.2
287.5215,361.5
287.629,21.8
287.64,501.1
287.7056,18
287.7235,252.5
287.781,235.8
287.8109,25.5
287.9293,44.1
287.9394,402.9
287.9492,137.1
288.0151,30.4
288.1555,56478.4
288.1798,353.4
288.2952,166
288.4909,20.1
288.6726,355.7
288.7686,3152.4
288.8552,911.2
288.8705,549.3
288.873,544.1
288.8769,2824.2
288.886,6654.7
288.8904,8552
288.8952,8408.1
288.9031,7900.3
288.9082,10146
288.914,15692
288.918,14696.7
288.9221,16613
288.9285,20947.1
288.9377,22421.8
288.941,25047.3
288.9483,18724.1
288.9541,23770.2
288.9638,10680.5
288.9688,7874.5
288.9755,6365
288.984,6172.8
288.9901,4483.7
288.9959,3313.7
288.9997,2014.3
289.0023,1947
289.0051,1913.4
289.0105,880.4
289.0149,807
289.0223,853.4
289.0311,815.1
289.0373,666.2
289.0489,177.6
289.159,3596
289.2142,171.2
289.2481,169.8
289.4594,237.5
289.5905,603.9
289.6066,392.5
289.8195,164
289.8337,485
289.8596,347.2
289.8934,26.1
289.9052,20.3
289.9293,577.5
289.9363,2652.9
290.4547,186.7
290.4767,222.3
290.5742,258.4
290.6853,170.1
290.7656,1495.3
290.7821,323.7
290.7974,263
290.8688,180.6
290.8892,29.6
290.8981,19.2
290.9018,300.4
290.9748,516
291.0264,1626.9
291.1907,417.3
291.2003,379.9
291.2689,272.9
291.3379,17.6
291.4043,18.4
291.4206,178.6
291.4496,186.9
291.5854,758.3
291.9453,217.7
292.1025,78.5
292.5151,195.5
292.6946,173.9
292.7248,563.8
292.7624,345.9
292.8357,117
292.9369,280.5
292.9547,17.8
292.9699,22.4
293.0044,742.1
293.072,2058.1
293.098,260846.5
293.106,268.7
293.1259,342.4
293.1792,1342.4
293.1858,183.2
293.2496,171.8
293.3031,618.7
293.4281,342.5
293.4476,400.3
293.514,596.2
293.6373,561.9
293.6912,407.8
293.8591,27.3
294.0769,37.8
294.1014,23831.7
294.1247,18.8
294.3924,172.9
294.4431,323
294.4746,671.7
294.5026,19.8
294.5902,22.5
294.5981,259.3
294.7067,175.8
294.7412,582
294.7572,470.3
294.7679,174.2
294.8661,319.6
294.9101,340.5
294.9418,214
294.9755,235.3
294.9905,19.8
295.0307,761.6
295.0512,587.2
295.0811,265.4
295.0844,206.7
295.1028,1357.2
295.1301,498.4
295.1352,23.2
295.1455,707.5
295.1812,339.1
295.1946,13315.3
295.2146,236.9
295.6506,17.1
295.7066,269.1
295.7118,796.3
295.7333,743.2
295.8299,204.8
295.9372,201.4
295.985,256.3
296.0509,167.5
296.1042,376
296.2535,345.4
296.266,722.7
296.2976,509.9
296.5658,530.2
296.5753,23.7
296.6341,207.1
296.8272,178.8
296.8369,169.6
296.9149,205
296.9486,320.5
297.0235,374.5
297.0457,65.1
297.1512,57.8
297.1771,290.5
297.1964,176.3
297.2293,280.7
297.3852,235.1
297.463,170.1
297.5831,309.1
297.6397,224.6
297.7456,220.4
297.9165,589.8
297.9371,385.4
297.965,210
298.0175,325.5
298.0251,1952.9
298.0421,8605
298.0876,398.1
298.1001,227.4
298.1241,136.7
298.1553,718
298.5937,176.3
298.7095,17.5
298.7159,175.3
298.7636,552.1
298.798,408.9
298.8776,99.7
298.9159,272.9
298.9239,399.1
299.0233,696.8
299.0456,293.8
299.0684,223.2
299.1395,677
299.3019,17.3
299.3987,198.8
299.4687,206.3
299.51,441.7
299.5563,243.7
299.6675,390.9
299.7233,24.6
299.7808,805.1
299.8033,234.5
299.8501,379.4
299.87,157.1
299.9321,328.6
299.9573,783.9
299.9723,388.3
300.0044,725.2
300.0352,645.6
300.0752,60
300.1122,301.1
300.1909,705.4
300.1957,743.2
300.3253,17.8
300.4909,213.6
300.5047,341.4
300.5315,199.6
300.7692,326.9
300.819,52.7
300.8539,414.9
300.8746,296.4
300.9938,284.8
301.0384,21876.2
301.1131,329.6
301.1414,150.6
301.1993,62
301.2059,184.6
301.2104,955.1
301.262,17.1
301.3765,329.2
301.5133,554.3
301.5441,22.1
301.682,20
301.7465,150.3
301.7517,239.8
301.7628,48.7
301.8272,22.8
301.915,358.3
301.9324,210.6
301.9938,7440.9
302.012,432
302.02,325.3
302.0346,25.8
302.064,1758.5
302.1189,19.1
302.3073,193.1
302.3513,19.4
302.3647,809.3
302.4295,464.3
302.4343,332.3
302.6622,18.9
302.6731,417.6
302.7191,249.5
302.738,226
302.7455,1152.2
302.757,920.5
302.8002,514.8
302.82,213.4
302.8292,2311.6
302.9127,170.4
302.9294,542.7
303.0196,158
303.0242,465.6
303.0378,161.7
303.0671,119.7
303.2175,628.4
303.3059,214
303.3136,178.4
303.3264,168.6
303.675,633.7
303.6862,160.2
303.7321,215.4
303.735,213.5
303.9858,304.4
304.0587,48.8
304.2245,371.5
304.2928,673.1
304.6282,247.6
304.6656,320.4
304.7005,390.7
304.75,198.8
304.7797,608.1
304.7973,21.1
304.8135,192.7
304.8262,1241.6
304.8804,356.8
304.8951,752.9
304.9473,676
305.0886,148.5
305.0946,322.9
305.1968,40.3
305.281,160
305.3816,384.4
305.7688,236.1
305.9102,203.5
306.0327,365.2
306.1744,495.6
306.2846,20.6
306.3676,380.5
306.5478,17.4
306.6855,162.8
306.8127,46.9
306.8415,171.3
306.8834,22.9
306.8952,21.1
306.9574,949.8
306.977,1562.1
306.9904,428.2
307.073,133.4
307.1357,23.7
307.176,387.5
307.2563,21.6
307.2633,206.3
307.4219,226.1
307.4668,62.6
307.5537,19.3
307.5625,20.4
307.632,230.9
307.6687,43.6
307.8098,556.1
307.8165,262.2
307.958,821.5
307.9665,236.9
308.0474,318.2
308.0891,245.1
308.3051,775.5
308.334,188
308.3709,150.6
308.3832,18.3
308.4429,545.3
308.6597,430.1
308.7053,511.3
308.7414,367.8
308.7541,25.6
308.7661,238.4
308.7848,348.1
308.8083,603.2
308.8767,280.9
308.9639,160.4
309.0387,2676.2
309.0823,1239
309.1514,308.3
309.2215,473.5
309.3095,641.3
309.3232,209.1
309.4428,571.1
309.4647,23.5
309.5324,1187
309.6297,258.3
309.6492,23.3
309.816,147
309.839,54.1
309.8634,153.1
310.159,157.3
310.2035,477.8
310.321,17.4
310.415,360.5
310.427,161.7
310.6714,342.5
310.718,636.2
310.734,649.8
310.8036,89.6
310.8387,334.2
310.8757,591.6
310.8813,367.4
310.9055,19.5
310.9393,198.4
310.9515,337.5
310.9643,462.2
311.002,39.5
311.1671,658.2
311.1816,204.4
311.207,245.9
311.253,366.7
311.3239,20.6
311.3753,269.5
311.4026,20
311.4278,165.3
311.584,260.8
311.5986,648
311.611,509.1
311.6963,449.3
311.7722,613.7
311.8002,45.9
311.8323,158.1
311.9783,432.9
311.999,122.3
312.0193,140.4
312.0311,209.7
312.0408,1506.2
312.1425,175.8
312.1708,54
312.347,20.7
312.375,559.5
312.4284,245.7
312.4392,420
312.7082,211.8
312.7196,356.9
312.806,270.8
312.8587,728.1
312.9147,299.3
312.9159,296.2
312.9473,18.8
312.9964,262.5
313.0178,141.3
313.0892,293.6
313.1693,151.1
313.2738,31536.5
313.3382,556.3
313.3756,549.1
313.4045,351
313.4342,22.4
313.6787,208.3
313.701,167.2
313.7331,192.7
313.7449,312.1
313.8277,23.4
313.9694,493.2
313.9987,787.7
314.0146,3660.1
314.0651,692.4
314.0756,451.8
314.0773,427.8
314.0957,493.1
314.1264,18.3
314.2288,340.7
314.2461,162.8
314.2562,581.9
314.2771,3621
314.5559,813.9
314.7463,18.8
314.7981,528.2
314.8369,4936.2
314.85,25
314.9021,685.4
314.9987,4829.3
315.018,242
315.0352,543.9
315.0551,4936
315.0617,3983.8
315.0659,11367.3
315.0694,12821.8
315.0706,11743.6
315.08,7643915.5
315.0877,20753.8
315.0899,13172.3
315.0963,7221
315.1037,1283.3
315.1253,441.4
315.161,4636.3
315.2601,281.7
315.3236,6356
315.4772,345.5
315.5739,329.6
315.6222,500.6
315.6597,24.1
315.7887,360.7
315.9441,88.2
316.0137,44.6
316.0774,42508.6
316.0833,776962.7
316.216,212.4
316.4945,358.3
316.5593,20.1
316.6338,414.9
316.6954,242.8
316.7971,419.7
316.8259,790.3
316.9167,20.1
316.9866,1699.1
317.0032,411.8
317.0202,152.6
317.0839,87985
317.1644,246.5
317.2147,182
317.3539,237.4
317.5899,21
317.7064,207.9
317.7827,564.4
317.7948,36.5
317.822,133.5
318.0875,7296.9
318.1329,208
318.1667,375.5
318.3655,164
318.587,289.4
318.6617,406.2
318.7602,363.7
318.7923,2681.9
318.8032,1790.6
318.8231,162.9
318.8642,89.8
319.1034,521.5
319.1675,335
319.1875,466.4
319.1945,25712.6
319.5269,181.3
319.5774,485.2
319.6647,469.5
319.707,131.2
319.7773,167.8
319.7924,45.4
319.8894,396.8
319.9004,665
320.003,358
320.0538,18.1
320.1626,276.2
320.1979,2141.5
320.2584,15704.9
320.3222,161.9
320.3659,286.8
320.3817,379.6
320.6892,232.9
320.7934,123.3
320.8003,584.1
320.8306,285
320.8662,147.2
321.1635,176.4
321.2103,33173.6
321.2623,1276.3
321.4229,40
321.6273,156.9
321.6509,795.1
321.758,538.8
321.8161,113.4
321.8812,393.9
322.0089,56.9
322.0417,423.7
322.2063,608.7
322.2135,4969.9
322.2843,21.3
322.3134,193.5
322.359,18.9
322.471,223.6
322.4808,404.7
322.4929,716.5
322.5846,150.4
322.7062,221.4
322.7226,319.3
322.7492,831.9
322.8112,330
322.8238,26.5
322.8334,140.7
322.8362,147.7
323.0203,12798.2
323.1125,709.9
323.2258,2100.3
323.2893,150.1
323.3164,568.1
323.3396,242.7
323.4639,379.2
323.4933,332
323.5322,302.7
323.6812,477.1
323.6921,817.8
323.8464,488.2
324.0016,6379.3
324.2485,454.5
324.5335,21.8
324.7016,4733.8
324.7057,5271.6
324.7104,3683.1
324.7168,3835.3
324.723,1415.3
324.7329,2212.8
324.744,354.5
324.8084,713
324.853,460.9
324.9192,892.6
325.0019,1333.4
325.1832,19.2
325.2117,2306.4
325.3681,325.3
325.625,555.9
326.0045,25.1
326.1238,198.2
326.1649,172.5
326.3414,168.9
326.3565,18.8
326.5356,330.8
326.5537,497.2
326.5615,487.6
326.5994,21.1
326.789,790.8
326.8983,674.6
326.9131,17.5
326.9206,204.1
326.9966,529.4
327.0154,4679.4
327.0516,2350.4
327.2271,8010.7
327.2913,225
327.3062,335
327.334,278.4
327.3586,198.1
327.4199,288.9
327.5375,607.3
327.7011,234.4
327.9749,166.1
328.0143,614.7
328.0192,156.7
328.0299,21.3
328.3438,216
328.4539,306.1
328.4719,675.8
328.4898,21.2
328.4982,379
328.5128,201.9
328.5264,392.6
328.7924,402.7
328.8116,31.2
328.8132,28
328.8309,519.7
329.0418,21.7
329.0963,250.8
329.1792,142.9
329.1818,156
329.3792,801.9
329.4249,210.5
329.4378,240
329.4478,19.6
329.5092,268.5
329.6089,231.2
329.6727,257.5
329.7708,583.9
329.8224,713.1
329.9021,18.9
330.0589,22
330.2824,149.3
330.3165,427.5
330.4808,566.2
330.5602,505.4
330.6998,162.2
330.8286,506.7
330.8675,735.9
330.9517,17.8
330.9635,16.2
331.0184,983.3
331.0451,58203.6
331.054,990429.9
331.07,429.9
331.1208,165.7
331.1842,258.2
331.3692,532.9
331.4249,17.6
331.7289,388
331.7863,458.1
331.8363,756
331.9241,788
332.0573,90813.9
332.14,694.3
332.1493,16.7
332.313,136.2
332.3817,298.8
332.7701,124.9
332.8083,162.9
332.852,227.2
332.9503,603.4
332.96,1345.8
333.0521,57912.3
333.1514,1027.7
333.2507,284.8
333.4117,443.1
333.4722,274.7
333.7483,18.9
333.8173,19.8
333.979,354.1
334.0552,2902.5
334.0728,345.2
334.1241,351.1
334.1629,443.6
334.222,314.3
334.3443,750.2
334.551,281.5
334.7465,316.8
334.8284,266
334.837,538.3
334.9407,694.8
335.127,374.3
335.167,4673.5
335.2048,218.6
335.2442,522.9
335.2529,329.9
335.4827,840
335.515,697.8
335.5304,145
335.5992,445.2
335.832,26.2
335.8862,391
335.9965,24.7
336.1992,289.6
336.2519,518.8
336.2992,510.6
336.3164,309.3
336.3804,18.3
336.3862,546.7
336.3976,369.1
336.5232,233.9
336.5601,281
336.6745,135.1
336.8029,23.5
336.9283,315.4
336.9486,38.9
336.9669,669.3
337.0361,13360.8
337.0495,15481.9
337.0619,450909.8
337.1826,2769.6
337.2022,22.7
337.2294,289.1
337.2739,7604.3
337.302,224.7
337.3157,306.7
337.3252,174.2
337.3603,477
337.3907,169.6
337.4224,268.3
337.5768,178.4
337.6743,685.2
338.0653,43831.7
338.1862,74.6
338.2901,328.2
338.3159,382.7
338.3417,21.4
338.3647,190.9
338.3713,159.4
338.4001,243.1
338.4237,295
338.6624,754.9
338.9215,444.4
339.0382,365
339.047,171.4
339.0657,826.9
339.1373,259.4
339.1799,471.4
339.1983,420.5
339.2721,689.6
339.2895,6053.3
339.3451,435.4
339.4668,210.2
339.5969,658.8
339.9673,1190.7
339.9756,914.1
340.0319,228.8
340.2014,30.2
340.2196,140.9
340.2923,308
340.3727,178.4
340.5121,755.6
340.5373,212.5
340.6887,158.1
340.7476,660.6
340.7827,423.8
340.8586,252.3
340.9512,489.3
341.0181,1165.6
341.0997,276.8
341.1148,167
341.1357,236.1
341.1953,17.7
341.2753,166
341.3052,3590.4
341.3783,204.5
341.4445,181.4
341.5414,213.4
341.5774,261.2
341.6959,379.6
341.7179,290.3
341.7416,346.9
341.7814,368.1
341.8412,293
341.9664,444.3
342.015,2405.4
342.2245,18.5
342.2708,490.4
342.5354,586.4
342.5717,165.7
342.6719,154.9
342.7667,505.7
342.9592,546.9
342.9894,2868.4
343.0151,95.9
343.0248,867.9
343.1167,498.5
343.1947,12513.8
343.2558,157.5
343.3329,721.5
343.3645,309.7
343.4072,398.6
343.6663,21.4
343.7651,389.4
343.9778,18.9
343.9882,1225
344.0514,17.5
344.1446,416.9
344.2661,231.5
344.3278,165.1
344.3514,18.6
344.3723,162.3
344.4963,480.2
344.5832,21.8
344.8671,672.1
344.9662,227.1
344.9892,197.5
345.0719,22.8
345.2108,188.6
345.2254,18.7
345.2406,701.5
345.3784,17.9
345.4568,762.8
345.482,400.9
345.5455,409.1
345.5589,22.2
345.5804,17.6
345.6678,18.7
345.7214,306.5
345.7921,632.8
345.8089,247.9
345.8159,20
345.9836,58355.9
346.0096,56.9
346.1795,473.6
346.2181,797.1
346.233,36.7
346.3485,226.5
346.6223,219.3
346.8259,340
346.8457,164.1
346.94,19.7
346.9871,2555.5
347.1574,134.6
347.1922,20.1
347.294,370
347.5087,149.4
347.5348,347.7
347.5922,183.2
347.6249,168.4
347.8175,496.7
347.8912,275.2
347.9194,38.2
347.9547,451
348.2412,465.1
348.4718,374.5
348.5353,186.2
348.557,896.1
348.5668,239
348.7049,275.1
348.8144,683.7
348.8386,171.3
348.9687,198.2
349.0249,230.8
349.0555,20.9
349.1249,522.1
349.3738,208.1
349.4928,376.6
349.5735,279.3
350.0004,171.1
350.0779,19.9
350.3869,751.3
350.5652,388.6
350.5825,229.1
350.6,315.9
350.6081,155.8
350.6209,39
350.7048,222.8
350.7574,277.4
350.9483,309.7
350.9721,196.7
351.1139,224.8
351.1785,20.4
351.1845,372.3
351.3976,269.1
351.431,414.4
351.8525,374.6
351.8997,297.1
351.9994,215.9
352.0474,337.1
352.0595,1477.1
352.1024,180.3
352.1938,23.4
352.3045,328.6
352.3866,611.3
352.4538,372.2
352.5951,176.2
352.6821,19
352.731,19.6
352.8415,299
352.8974,664.8
353.027,109035.2
353.0359,206123.5
353.1826,403.4
353.3636,25.1
353.4075,143.4
353.773,548.9
353.8901,334.5
353.9087,593.6
353.9759,664.5
353.9969,329.5
354.0298,6915.2
354.0393,20322.6
354.1268,267.1
354.3107,681.4
354.3379,205.4
354.3633,129.7
354.5077,196.3
354.656,16.4
354.6817,232.6
354.7813,224.4
354.903,335.9
354.9622,163.9
354.9838,474.2
355.0098,416.3
355.0341,11596.8
355.0701,5019.9
355.2011,590.1
355.2681,134
355.5689,219.9
355.853,381
355.9396,64.4
356.0411,765.7
356.0697,556.6
356.1561,607.6
356.2068,546.9
356.2499,277.6
356.2637,426.4
356.396,227.3
356.7175,37.4
356.8784,388
357.0089,52.9
357.0668,310.1
357.3225,239.8
357.3335,516.3
357.668,212.3
357.6746,1325.6
357.6899,305.8
357.9115,214.7
357.9465,198.2
357.9537,25.8
358.012,409.1
358.0307,19.8
358.0714,22.3
358.1969,429.4
358.2375,133.6
358.2773,312.4
358.2882,22.6
358.4158,267.3
358.8429,634.8
358.9081,178.3
358.9195,524.2
358.9437,507.4
358.9633,222.4
359.0073,342.1
359.0314,13594.7
359.0439,334439.8
359.1668,801.6
359.232,240.6
359.3246,17.2
359.3331,23.3
359.3569,204.4
359.3759,470.4
359.3902,336.4
359.4102,571.9
359.4206,506.1
359.4429,19.4
359.457,404.9
359.4646,1148.4
359.4663,1114
359.4857,554.7
359.4944,634
359.5205,466.2
359.5287,308.2
359.57,269
359.6692,478.7
359.7953,23.7
359.8568,209
360.0304,455.6
360.0473,28749.4
360.3236,140.4
360.3512,327.9
360.403,205.6
360.4121,357.3
360.4896,147.2
360.5638,229.4
360.582,504.3
360.7406,386.4
360.7845,617.3
360.8028,20.4
361.0199,2080.5
361.0478,418.8
361.1723,296.5
361.1836,19.8
361.249,19.8
361.2736,866.6
361.7919,181.7
361.8743,222
361.9307,31.5
361.9574,20001.2
361.9913,775.1
362.1554,149.9
362.2867,20.7
362.3386,321.2
362.3543,182
362.4612,18.1
362.8195,272
362.8974,383.4
362.9265,1838.7
362.9934,121.7
363.1045,355.8
363.2687,357.4
363.2886,784.9
363.8141,136.6
363.8636,708.6
363.8832,20
363.9263,657.9
363.9474,20.8
363.9747,122.9
363.9973,187.7
364.0811,19.7
364.219,145.1
364.3418,177.3
364.4357,23.4
364.6088,19.2
364.8138,234.2
364.8327,321
364.9078,628.3
364.9943,17.6
365.0546,649.3
365.362,267.5
365.4272,329.7
365.5823,173.5
365.6209,526.4
365.717,348.1
365.7525,174.2
365.8545,366.2
366.0598,303.3
366.1404,505.1
366.214,16.6
366.386,18.3
366.5327,288.2
366.69,429.4
366.7999,21.3
366.8723,378.2
366.9526,398.1
366.9909,403.2
367.0842,17.5
367.3186,18.2
367.5433,451.6
367.6749,186.1
367.9657,198.3
367.9916,822.5
368.0041,221.8
368.046,224.8
368.1413,240.7
368.1846,369.1
368.2229,144.2
368.2829,169.3
368.32,170.6
368.3875,378.1
368.4899,164.2
368.4934,152.1
368.5555,260.5
368.5624,160.2
368.8715,1033.4
368.9633,191.2
368.9734,184.5
368.992,6940.5
369.001,10310.8
369.0097,7731.4
369.1223,65.8
369.3046,583.4
369.352,75.5
369.4241,412.1
369.6187,408.8
369.7182,157.2
369.7696,410.4
369.8775,302.8
369.9313,196.7
370.2543,178.5
370.3396,20.9
370.6582,351.4
370.8024,230.3
370.8681,1391.7
370.9911,776.8
371.0024,476.1
371.0412,650.2
371.1014,52.9
371.1495,236.1
371.1852,687
371.2894,576.5
371.343,17.4
371.5305,404.8
371.5647,19.7
371.9041,18.6
371.9554,18.3
372.0636,245.7
372.0942,247.8
372.1029,317.5
372.196,20
372.2147,745.5
372.3006,172.9
372.5951,203.3
372.6238,16.4
372.7376,390
373.1689,495.1
373.2006,155.9
373.2925,484.8
373.3357,264.9
373.4295,18.9
373.7169,396.3
373.9498,20.7
374.3053,18.4
374.4118,18.5
374.5501,173.5
374.6227,19.2
374.6356,901.6
374.6723,184.6
374.6832,124.9
375.0089,125692
375.0178,103092.9
375.3378,285.2
375.574,364
375.6103,349.3
375.6225,705.6
375.8472,548.9
375.9293,183.1
375.9652,55.2
376.0121,9293.5
376.0213,7146
376.0798,262.3
376.283,1215.1
376.4218,224.5
376.5379,938.9
376.7035,179.7
376.7568,722.2
376.797,18
376.9209,19.6
376.9382,21.2
376.9791,18
376.9938,567.2
377.0015,258.7
377.0162,4514.4
377.0918,366.4
377.1487,425.5
377.1908,370.8
377.3018,19.1
377.3101,380.5
377.3306,386
377.3927,19.7
377.5015,454.7
377.7599,184.2
377.8993,680.4
377.9207,197.2
377.9315,1145.4
378.1197,584
378.3346,260.4
378.3898,225.5
378.4653,259.8
378.4806,178.5
378.5368,141.6
378.6001,149.3
378.7848,217.4
378.8132,50.2
378.9003,1575.8
378.9366,381.6
378.9435,19.5
379.0526,337.5
379.0832,22.5
379.1024,556.1
379.1892,228.8
379.2387,608.4
379.2809,764
379.2981,17.8
379.3385,30.7
379.4369,214.7
379.4438,18.9
379.5059,21
379.5824,746.9
379.6232,215.6
379.7361,125.3
379.7706,443.9
379.8117,17.6
379.9167,588.4
380.0914,381.5
380.1165,326
380.1792,155.5
380.2796,384.3
380.2974,190.2
381.0133,26873.6
381.0258,210150
381.1257,329.5
381.3605,733.9
381.5234,19.4
381.5383,674.8
381.6574,20
381.7393,125
381.7988,148.4
382.0291,17775.6
382.0768,291.4
382.2009,713.4
382.2909,329.5
382.5926,645.4
382.5996,365.5
382.6882,369.8
382.767,1319.6
382.8375,110.8
382.8562,341
382.8809,615.2
382.9738,670.6
383.116,97317.7
383.1942,696.4
383.2613,693.3
383.3902,260
383.6226,437.1
383.6962,629.4
383.7178,239.6
383.7528,376.4
383.8336,315.8
383.8616,45
383.9172,651
383.9656,324.9
384.1193,11450
384.1464,176.3
384.2199,446.7
384.2317,230.9
384.4682,21.4
384.5666,300.7
384.5845,124.8
384.7645,440.3
384.8916,436.8
384.9372,286.9
384.9649,227.2
385.0381,221.5
385.2735,44.7
385.2903,17.9
385.4201,18.6
385.5375,240.8
385.7997,306.8
385.8594,341.7
385.9453,30.8
385.9791,8470.8
386.0626,325.5
386.2332,251.6
386.3065,635.3
386.3177,194.7
386.3821,854.3
386.4348,20.2
386.7454,722.1
386.7739,334.3
386.8344,150.5
386.8917,217.3
387.5019,266.1
387.515,529.2
387.9778,1730.6
388.0323,482.6
388.0578,623.8
388.2909,547.1
388.3554,148.1
388.4223,196.8
388.7124,741.8
388.7286,539.9
388.8682,698.6
388.9448,20.9
389.1245,381.4
389.1434,652.5
389.1605,328.7
389.3292,162.6
389.6072,250.3
389.704,137.3
389.9141,278
389.9734,53915.5
389.9838,115.7
390.1574,745.2
390.2398,608
390.2763,341.1
390.7384,216
390.7983,1121.7
390.8525,386.8
390.9048,372.3
390.9236,158.1
390.9315,334.5
390.9455,503.8
390.9537,1774.8
390.9602,602.5
390.9736,18361.1
390.9827,22454
390.9917,13610.5
391.1218,217.6
391.163,321
391.5713,339.5
391.6791,351.4
391.7177,617.2
391.9775,760.6
391.9865,321.7
392.0696,563.8
392.2588,290.4
392.3228,18.8
392.3826,18.3
392.6883,510.5
392.7384,401.4
392.7958,1859.2
392.9078,693.2
392.9682,416.1
392.9818,789.2
392.995,300.4
393.0583,179.2
393.1971,394.7
393.2461,19.6
393.2649,193
393.7973,20.3
393.8252,330.3
393.8452,236.6
393.8971,326.2
394.3849,501.9
394.4545,498.2
394.4966,157.2
394.5302,18.8
394.7289,593.5
394.792,378.6
394.8431,462.9
394.9235,369.4
394.9741,182
395.0019,208.1
395.0097,39.3
395.0661,369.1
395.1462,17.8
395.2664,271.4
395.3491,157.9
395.4043,119.9
395.4908,22.7
395.6316,407.9
395.7063,146.6
395.8364,219.1
395.8868,719.3
395.9243,203.3
395.9527,680.8
396.0455,346.8
396.1432,274.6
396.1774,384.8
396.5172,312.7
396.5381,238.8
396.743,897.8
396.9125,17.7
396.9151,19.6
396.9188,19.8
396.9739,640.1
396.9909,182641.7
396.9997,65882.8
397.2155,186.7
397.2815,251.7
397.5933,599.5
397.6784,405.3
397.7869,346.3
397.9275,191.8
397.9673,46.1
397.994,16134.2
398.0031,3646.7
398.0591,139
398.2038,1384.3
398.2123,22.4
398.2413,1943.1
398.3609,253.2
398.473,706
398.5354,323.1
398.7406,960.6
398.9046,20.6
398.9318,1033.8
398.9861,339.6
398.9968,770
399.0268,412.3
399.0398,214.2
399.4444,419.5
399.6862,192.5
399.7316,20.4
399.8238,137.6
400.1224,236.9
400.1878,375.7
400.2193,612.3
400.4079,470.4
400.7381,559.9
400.7456,482.2
400.7959,439.7
400.8274,874.2
400.8608,20.8
400.984,1118.6
401.0157,234.3
401.2068,760.8
401.307,40.1
401.4225,23
401.5001,517.5
401.5078,320.3
401.6721,459.6
401.7295,249.6
401.7594,21.9
401.7985,19.6
401.812,602
401.9042,18.5
401.9526,1091.9
401.9986,299.6
402.0025,430.3
402.0597,429.3
402.1097,18.1
402.1675,216.6
402.1914,304.4
402.3494,147.6
402.3743,186
402.4454,52.3
402.6641,22.6
402.7453,404.3
402.7959,355.8
402.8128,179.8
402.825,496.8
402.8959,379.9
402.9715,344.3
402.9967,645.7
403.0077,282147.7
403.1774,258.5
403.268,306.5
403.3322,464.4
403.4361,187.1
403.4591,263.3
403.7322,381.4
403.809,265.3
403.942,2312.4
404.0111,22695
404.0436,176.7
404.4129,374.1
404.4418,38.9
404.8186,225.2
404.8367,412.7
404.8596,353.4
404.8751,219.8
404.9452,282.9
405.0114,653.3
405.0773,17.7
405.0983,326
405.1182,293.8
405.416,544.1
405.4712,294.1
405.7566,212.3
405.8927,566.6
405.9473,33215.6
406.2426,218.9
406.3293,961.7
406.3966,340.3
406.5605,17.2
406.5701,244.2
406.7166,19.2
406.7727,1368.6
406.8838,232.6
406.9521,757
407.0776,214.9
407.2019,500.7
407.2967,670.1
407.3327,196.4
407.494,144.2
407.5651,144.4
407.646,627.9
407.7599,621.6
407.7874,241.1
407.8008,22.7
407.8171,96.7
407.9214,239.7
407.9469,575.7
408.0606,16.9
408.0653,16.6
408.384,596.6
408.5249,19.1
408.617,273.3
408.6722,914.4
408.7336,23.9
408.7696,2229.9
408.8917,18.3
408.9477,942.1
408.9726,190.2
409.0372,175.8
409.0736,278.3
409.2128,615.2
409.2616,20.6
409.2984,311.3
409.3215,507.9
409.3568,180.6
409.3781,221.6
409.7534,682.8
409.868,398.6
409.9304,453.6
410.2383,21
410.2522,164
410.2748,20.4
410.2895,711.1
410.3101,362.3
410.3583,371.6
410.3827,355.9
410.4604,549.6
410.5133,20.1
410.6919,176
410.7009,252.4
410.7653,173.9
410.8564,1683.9
411.2287,468.2
411.2705,492.9
411.2947,44.1
411.3208,767.8
411.3662,364.4
411.5619,175.2
411.698,18.4
411.7859,216.7
411.7987,284.4
411.9441,19.6
412.0467,336.2
412.2387,20.7
412.3211,12510
412.3332,626
412.3406,234.5
412.4378,236.9
412.5841,329.1
412.6109,24.5
412.6753,411.5
412.7171,516.3
412.9484,166.2
412.9642,45863.2
412.9735,11382.4
413.2661,2373.8
413.3235,1258.1
413.3333,695.9
413.4131,129.2
413.6396,244.5
413.9395,369.8
414.1297,189.7
414.2697,284.9
414.3278,46.7
414.488,482.2
414.5307,18.9
414.5832,333
414.6072,371.2
414.7143,1070
414.92,225.8
414.9428,20.4
414.9632,1471.5
414.9975,2761.5
415.0112,654.9
415.0364,575.7
415.173,334.1
415.3979,399.7
415.7018,235.9
415.7626,356.2
415.8525,710.9
415.8656,236.1
415.9096,607.4
416.1353,1997.7
416.214,44100.5
416.2271,541.6
416.2547,375.2
416.2609,44.6
416.2693,446.4
416.3954,179.7
416.4304,579.2
416.4585,322.3
416.4952,256.5
416.5045,216.9
416.5161,661.3
416.6024,517.7
416.617,327.9
416.7103,642.7
416.7625,21
416.8014,1342.8
416.9916,166.7
417.1426,266.8
417.1918,189.7
417.2172,3764.6
417.234,323.1
417.5722,588.6
417.6171,249.4
417.8368,29.2
417.8632,917.5
417.9255,511.2
418.3132,365.5
418.4628,251
418.5082,155.8
418.5202,702.5
418.7077,370.6
418.7751,27.1
418.7992,489.5
418.8087,35.1
418.9817,103179.7
419.2158,161.7
419.2557,3370.2
419.3458,58.5
419.3795,521.2
419.6943,533
419.9171,280.7
419.9848,4427.9
420.0699,238.8
420.1544,267.1
420.1977,159.1
420.2125,353.3
420.7863,26.6
420.8848,1195
420.9576,413.7
420.9797,3374.5
421.1865,587.2
421.2842,347.8
421.3567,178.5
421.3685,22.5
421.5515,466.7
421.8169,43
421.8307,17.4
421.9066,788
421.9213,14198.6
421.9344,26.7
422.2836,139.6
422.3034,46.8
422.4275,173
422.7462,422.6
422.801,18
422.874,350.7
422.9997,191.2
423.1908,20.2
423.3644,19.8
423.5345,475.3
423.5854,423.5
423.7053,198.1
423.7678,37.8
423.9056,690.7
424.1785,455.7
424.1884,401.2
424.2066,514.2
424.2472,281.1
424.2651,191.6
424.6403,146.9
424.7274,290.8
424.9472,155
425.0299,24.3
425.0738,332.5
425.1039,558.7
425.235,184.3
425.3656,225.5
425.4715,170.4
425.8093,173.5
426.0414,377.6
426.1521,251.5
426.2649,562.6
426.4287,227.3
426.5037,445.6
426.6519,385.2
426.7124,315.4
426.8297,994.5
426.9417,236.7
427.0036,23
427.0548,255.9
427.1365,21.9
427.3011,19.4
427.3284,415.7
427.3435,958.3
427.4063,24
427.823,530.5
427.9337,711
427.9448,215.4
427.9766,305.8
427.9991,19.3
428.2174,395.3
428.4413,681.4
428.7732,20.3
428.8275,976.2
428.8466,342.5
428.9374,10149.3
428.981,622.9
429.0184,497.5
429.0338,21.8
429.0433,317
429.0503,221.3
429.0587,588.7
429.0676,135
429.0885,2782.1
429.1096,166.5
429.1269,533.7
429.2835,277.3
429.3251,283.1
429.534,175.7
429.5484,38.9
430.0878,498.6
430.1315,306.5
430.3709,619
430.4211,503.2
430.6788,530.6
430.6971,426.9
430.7261,331.2
430.7633,150.5
430.9135,2364.3
431.0857,317.8
431.2165,1840.3
431.2922,241.6
431.3767,237.8
431.7472,455.9
431.9896,196.3
432.0841,39.8
432.1092,317.6
432.1627,586.3
432.2167,212.6
432.3852,196
432.6339,162.6
432.7083,768.6
432.8294,200.9
433.0682,454.9
433.1808,19.5
433.5349,377.4
433.5802,247.7
433.6871,307.8
433.7111,147.1
433.7629,497.9
434.2924,468.9
434.3387,377.3
434.9556,20383.6
435.0628,20.5
435.1747,243.7
435.2041,498.4
435.3042,204.9
435.542,293.2
435.6853,330
435.6874,321.8
435.696,40.2
435.9588,339
436.0025,536.5
436.2761,390.6
436.4148,498
436.5139,185.9
436.5612,193.6
436.5975,155.1
436.7196,243.7
436.7281,24.1
436.7971,531.7
436.9538,456.7
437.2047,985.1
437.5956,578.5
437.8594,146
437.9097,378.1
437.9362,712.2
438.087,192.5
438.1275,774.7
438.1672,549.7
438.1961,394.5
438.8552,670.6
438.9215,194.1
438.972,3444.6
438.9848,1821
439.0169,165.7
439.0454,570
439.1199,217.6
439.2736,244.8
439.3954,161.5
439.5436,585.8
439.5527,532.3
439.5942,395
439.7562,133.5
439.7865,331
439.8545,499.2
439.9571,36.2
439.983,178.1
440.2339,349.4
440.353,474.9
440.7931,204.7
440.8068,148.8
440.8764,463
441.0178,676
441.2069,239.4
441.2979,321.3
441.3941,391.1
442.0832,152.1
442.14,422.6
442.1514,557.2
442.16,323.4
442.1941,437
442.3005,82
442.3585,251.2
442.384,165.9
442.3988,163
442.6492,422
442.9535,18.5
442.9826,426.6
443.0429,525.3
443.2547,806.5
443.3093,721.8
443.4426,467.3
443.5679,181.6
443.8065,357.8
443.9384,229.8
443.9725,22.2
444.0232,378.3
444.0524,207.4
444.0665,209.6
444.6796,368.6
444.7188,415.3
444.7736,148.2
444.8071,20.3
444.8529,625
444.9092,544.9
445.0788,176.1
445.2316,950.1
445.2692,1007.4
445.6656,355.8
446.2223,236.4
446.3827,20.5
446.5376,519.8
446.6685,310.9
446.7673,958.2
446.7964,493.8
446.8148,463.2
446.8906,625.7
446.922,984.5
447.0118,243.4
447.2874,270.1
447.5264,170.1
447.6434,18.4
447.8593,308.4
447.932,5593.8
448.0521,348.1
448.1704,530.5
448.2031,213.4
448.3245,516.8
448.4107,581.7
448.5481,507
448.7433,374.5
448.7503,136.3
448.8959,388.3
448.9325,2769.3
449.154,1538
449.8933,20.1
449.9745,584.2
450.1301,479.2
450.1575,308.6
450.2045,221.9
450.4367,496.4
450.4577,350.4
450.8093,21.4
450.9292,377.5
451.0166,24.3
451.1495,48.4
451.1574,17.9
451.2036,253.5
451.5025,561.4
451.5196,153.7
451.6895,351.4
451.7584,413.1
451.7756,20.2
452.04,677.4
452.0647,21.4
452.1334,24.2
452.6222,361.8
452.6961,180.8
452.7835,208.6
452.9277,844.7
452.9443,855.6
452.9805,585
453.1201,548.4
453.5826,163.3
453.6011,338.6
453.8364,221.7
453.9917,257.9
454.1982,321
454.4657,18
454.7604,397.3
454.8281,401.8
454.9495,37554
454.9864,575.7
455.1828,332.7
455.2235,510.7
455.3781,493.6
455.4819,198.6
455.7065,184.2
455.7352,287.7
455.786,472.7
455.9528,1203.4
456.125,43.6
456.1929,420.6
456.4933,391.6
456.6866,230.3
456.7001,593.5
456.9469,10243.1
456.9781,18.9
457.1877,132.4
457.2325,11379
457.3771,212.5
457.4629,161
457.5924,44.5
457.6547,20.6
457.739,171.4
457.8711,22.4
457.9601,1276.6
458.2356,512.7
458.3064,181.1
458.6965,867.5
458.7229,344.6
458.9612,4072.4
458.9837,164.5
459.2482,297647
459.3314,507.8
459.685,151.5
459.6925,21.6
460.0129,250.8
460.0505,166
460.2515,63836.9
460.5417,16.7
460.6902,327.1
460.821,682.8
460.8821,317.5
460.9663,79099.9
461.255,3132.7
461.3708,648.6
461.6756,362.8
461.6961,131.2
461.7167,285.2
461.7506,463.5
461.8264,421.2
461.9046,427.2
461.9694,4610.9
461.9847,266.6
462.2559,530.9
462.301,429.4
462.3878,230
462.579,249.5
462.6147,223.5
462.8474,375.5
462.9632,21778.5
463.0398,212.1
463.2372,218.6
463.5634,16.6
463.68,494.9
463.6918,306.2
463.7671,394.8
463.8951,21.8
463.9059,2762.7
463.967,768.2
463.9951,397.9
464.0792,487.5
464.2307,45.7
464.4956,599.3
464.5826,979
464.7168,246.7
464.7617,22.2
464.9784,10149.7
465.0031,586.2
465.0144,18.8
465.1186,229
465.7514,210.9
465.8269,16.8
465.9035,139.4
466.3853,388.9
466.5822,157.2
466.7267,425.7
467.2192,307.4
467.3347,255.3
467.4454,489.4
467.8324,166.5
467.908,580.5
467.9367,21.4
468.0109,21.8
468.0233,414.2
468.1058,768.2
468.1419,395.6
468.2542,19.8
468.3092,1838.7
468.324,351.2
468.3395,210
468.4489,139.2
468.8399,752.1
469.2393,383.1
469.3292,69
469.6536,215.3
469.8371,324
470.2302,47.9
470.3424,316.5
470.3514,176.8
470.3557,171
470.5017,20.2
470.8421,249.2
470.8861,282.6
470.9234,16602.4
470.9952,2949.5
471.2136,337.3
471.2854,469.5
472.3417,155
472.3463,165.2
472.3698,150.6
472.7575,320.9
472.774,270.6
472.8158,42.4
472.9207,3583.9
472.9865,275.9
473.0332,160
473.0482,551.4
473.0699,570.9
473.1744,44.4
473.1881,338.4
473.2638,3883
473.3836,241.2
473.4959,399.4
473.7614,215.8
473.7756,220.4
473.8588,384.5
473.9333,214.6
474.0862,271
474.5382,19.6
474.723,183.8
474.7543,22.2
474.7732,425.8
474.9837,24.5
475.0041,116.3
475.0954,682.3
475.1961,19.5
475.2219,14304
475.2407,424.2
475.4602,172.1
475.513,636.3
475.5298,310.2
475.5412,693.6
475.6124,21.3
475.9383,457.6
476.0657,177.5
476.119,401.9
476.1759,146.7
476.1955,188
476.2256,2053.4
476.4374,131.1
476.5434,331.3
476.8292,266.1
476.9165,767.1
476.9401,46820.7
476.9701,893.8
477.3275,400.2
477.4583,201.1
477.5252,390.3
477.7385,21.8
477.758,343.8
477.8783,282.4
477.9222,207.5
477.9438,2616.6
477.961,244.2
478.0843,259.4
478.1501,151
478.3291,46979.1
478.4064,177.8
478.5293,168.7
478.873,181.4
478.9375,14993.1
479.1173,18.9
479.2499,187
479.3325,8972.9
479.7334,240.1
479.8556,234.3
479.8806,700
479.8983,761.1
479.9886,48.1
480.25,452.7
480.2779,21.5
480.7217,404.6
480.7667,29.7
480.9522,2213.1
481.0599,40.2
481.0913,1153.8
481.232,576.9
481.4329,495.8
481.6875,218.3
481.746,341.3
481.8888,307.9
481.9433,558.8
481.9891,527.8
482.0769,574.9
482.0944,157.4
482.3241,976
482.4909,497
483.1641,839.8
483.2481,127222.5
483.337,20.2
483.3739,249
484.2514,27548.6
484.3297,169.6
484.535,209.3
484.7602,594.6
484.8672,203.8
484.9373,308.9
485.1293,24.4
485.2135,163
485.2304,276.4
485.2637,116046.1
485.3806,162.9
485.7906,269.6
485.8689,56.3
486.2169,268.5
486.2671,22655.4
486.5124,748.3
486.7005,531.7
486.8964,1962.9
486.9456,649.7
486.9686,353.8
487.0473,397.8
487.2794,80724.1
487.3197,164.8
487.6904,131.1
487.7103,570.4
487.8443,19.2
487.9119,135.5
488.1477,249.9
488.187,160.5
488.2827,14229.5
488.3658,223.8
488.5189,19.3
488.5327,259.5
488.7307,314
488.7665,328.8
488.7977,462.9
488.8371,349.4
488.8951,496.2
489.0555,181.6
489.1987,495.2
489.219,20.6
489.2334,233.4
489.2444,22.3
489.2572,238.5
489.27,842
489.2856,2281.7
489.5255,185.2
489.8771,174.6
489.9984,210.6
490.0778,21.5
490.0901,151.8
490.2911,3029.6
490.6756,207.3
491.0071,282.4
491.1013,351.9
491.1306,327.4
491.2959,372.8
491.3061,351.5
491.3842,692.3
491.4927,153.9
491.5213,573.1
492.448,461.5
492.5059,259.3
492.521,816.3
492.5702,261.7
492.9139,7562.6
493.0665,18.9
493.2334,191.7
493.275,332.9
493.4625,344.8
493.8798,228.5
493.9182,352.2
493.959,483.9
494.2324,246
494.3238,8956.5
494.4219,200.6
494.6492,322.3
494.6806,429.2
494.9114,3004.9
494.9676,844.3
495.4959,391.5
495.5904,344
496.0357,388.8
496.1405,197.5
496.1577,911.6
496.2162,633.2
496.2671,189.4
496.2947,400.7
496.3397,413995
496.3929,19
496.5034,260.6
496.8028,438.1
496.8538,313.5
496.8759,310.8
496.9309,596.7
496.9675,495.1
497.0143,22.5
497.343,100698.7
497.412,155.3
497.4619,179.5
497.5053,510.2
498.0871,249.9
498.1785,17.5
498.346,8034.2
498.4298,952.9
498.8793,309.2
498.927,1134.1
498.9792,214.3
499.0028,434.5
499.1421,267.1
499.222,4776.9
499.2769,19
499.5501,143
499.9178,620.3
500.0207,18.9
500.0634,594.7
500.1767,22.7
500.2424,183.4
500.3124,18.9
500.3987,474.1
500.6274,249.5
500.6805,293.2
500.9206,359.2
500.9359,335.3
501.2375,5707.4
501.2925,325.5
501.4126,44.3
501.4266,22.7
501.4895,423
501.64,355.1
501.8211,321.7
502.0034,526
502.1163,241.6
502.329,21812.3
502.3953,349.1
502.5235,343
502.7279,226.5
502.7878,286.6
502.8003,19.6
503.1074,1070.2
503.2535,2137.2
503.3034,479.7
503.3326,2308.7
503.3588,169.3
503.592,220.5
503.7359,414.8
503.7537,23.7
503.92,251.7
504.1061,175.8
504.2557,471
504.3059,1569.2
504.3447,11647.5
504.4388,21.7
504.4811,21.4
504.6286,497.5
504.6683,466.3
505.1052,58.3
505.2325,4163.9
505.3476,1157.4
505.603,19
505.891,645.1
506.0632,380.1
506.1868,270.4
506.2645,344.7
506.3601,7993.5
506.3789,616.7
506.5567,18.4
506.6247,428.6
506.7147,590.5
506.774,20.5
506.8911,1460.3
506.9275,203.6
507.1326,170
507.1894,20.5
507.2334,645.9
507.248,27854.8
507.3635,505.2
507.6987,277
508.1022,335.8
508.1464,595
508.2519,4082.5
508.4988,172.2
508.5809,639.3
508.7191,385.7
508.8882,2257.3
509.0029,414.2
509.2637,5968.8
509.4785,19.9
509.5007,687.7
509.6281,253.9
509.7257,219.7
509.9329,245.7
510.1968,181.2
510.2484,354.3
510.2629,610.4
510.3093,370.7
510.3321,19.4
510.3556,4116
510.4238,183.1
510.5552,163.9
510.586,20.1
510.6276,582.8
510.6753,158
510.9536,284.8
511.1199,351.9
511.3401,222.1
511.9505,18.9
511.9704,192.3
512.0792,328.2
512.2489,360.7
512.5478,716.1
512.5979,557.8
512.6373,17.8
512.6981,19.7
512.8063,218.2
512.908,12862.9
513.0853,19.6
513.2693,344.5
514.0698,568.3
514.1963,272.8
514.5293,19.6
514.6432,431.1
514.8191,279.8
514.9049,6869.6
515.0257,20.7
515.1718,37
515.2088,311.1
515.4539,145.2
515.5784,213.3
515.6477,187.7
515.8624,622.7
515.9184,351.2
516.3059,11310.4
516.7022,19.1
516.8511,386.8
516.9198,1321.5
517.0113,132.7
517.1648,352.4
517.288,189.3
517.3094,676.3
517.3692,22.3
517.4713,343.7
517.6007,184.2
517.758,271
517.8893,18.5
518.007,351.9
518.1503,181.2
518.243,19
518.3216,476547
518.9248,25821.5
518.9501,659.4
519.0192,277.4
519.16,46
519.3052,208.5
519.3249,118235.4
519.4029,207.6
519.6028,18.6
519.6312,456.1
519.8864,244.2
519.9283,1806
520.1532,271.8
520.2303,366.3
520.2985,428.5
520.3397,154009.1
520.5457,403.1
520.5613,259.8
520.8641,143.3
520.9219,15259.7
521.0026,19.4
521.1608,316.8
521.2721,154.8
521.3429,38487.9
521.5181,251.1
521.5895,178.6
521.6782,664
521.8187,483.1
521.8595,420.5
521.9256,829.1
521.9771,1118.1
522.27,182.5
522.328,22.5
522.3554,165348.5
522.369,540.9
522.5111,188.7
522.6176,233.6
522.7383,170.2
522.9194,978.3
522.9366,4596.2
522.9658,361.7
523.222,325.8
523.3587,43585.2
523.3982,1121.2
524.1597,847.5
524.1638,849.8
524.1706,1233.5
524.2494,153.1
524.2953,746.8
524.3419,185.8
524.3709,150035.7
524.3943,19
524.4812,282.2
524.7796,191
524.9248,252.8
524.9352,808.8
524.9507,256.7
524.9979,572.9
525.2687,18.9
525.3053,207.6
525.3743,36985
525.5508,42.5
525.678,42.6
525.9437,313.3
526.0152,138
526.3116,18.5
526.3286,3553.9
526.3774,2364.5
526.5545,387.5
526.7099,188.8
526.7168,201.8
527.0072,503.1
527.1175,721.9
527.1494,25
527.3094,384
527.3321,313.6
527.4279,481.3
527.6014,20.8
527.8585,707.9
527.94,1557.9
527.9883,168.2
528.0301,472.7
528.1666,267.2
528.3436,327.7
528.5143,433.3
528.7697,568
528.7745,572.2
528.8152,169.5
528.8816,6778.8
528.9541,1941.6
529.2622,1215.4
529.4765,607.3
529.5154,164
529.6436,602.4
529.6811,455.9
529.7387,230
530.0911,20.9
530.3564,754.3
530.3834,501.5
530.8629,793.2
530.8791,3112.9
530.9609,22.7
530.9807,537.5
531.0029,137
531.2482,3963.4
531.2945,244.2
531.4744,22.1
531.5786,436
531.7711,19.6
531.7995,378.5
532.2497,1114
532.2795,2881
532.3373,6434.8
532.4046,19.7
532.4763,486.4
532.6202,176.1
532.6835,43.5
532.7113,22.6
532.8743,488.2
532.914,894
532.9657,1151.4
533.1903,227.4
533.2643,772.2
533.3412,754.2
533.6696,213.3
533.6851,40.5
533.9005,496.5
533.9374,603.4
534.0322,18.8
534.1825,157.9
534.2956,165312.8
534.4107,600.8
534.4914,24.6
534.5745,548.5
534.7424,605.8
534.8988,17306.7
535.0223,323.1
535.2091,233.4
535.2988,36240.7
535.3682,659.5
535.8756,17.9
535.9021,376.5
535.9732,756.7
535.9921,417.4
536.1453,21.3
536.2299,20.7
536.294,7302.9
536.584,218.4
536.8959,9774.1
537.2958,585
537.3856,288.4
537.4633,20
537.6473,447.4
537.8673,580
537.9507,182.5
538.4236,353.4
538.4298,269.4
538.4926,230.6
538.7238,194.6
538.7562,167.3
538.8207,302.5
538.8594,571.1
538.8928,1508.6
538.9109,1403.6
539.161,127.7
539.3989,434.3
539.5638,857.4
539.7314,28.7
539.8525,164
539.9975,573.3
540.063,789.8
540.1403,1049.5
540.2147,394.6
540.3064,866.1
540.5576,201.4
540.6721,182.2
540.7848,174.2
540.9663,716.4
541.0372,171.5
541.8879,232.1
542.1229,19.7
542.1464,205.3
542.3217,180386.2
542.6129,22.3
542.6407,178.5
542.9443,159.8
543.3249,42335.9
543.4694,20.3
543.5108,21.1
543.5798,325.1
543.7859,365
543.8417,218.1
544.2723,1650.7
544.3374,188197.6
544.4059,626.6
544.5335,358.3
544.5485,164.2
544.7685,18.1
544.9133,438.2
544.9487,2220.6
545.0668,725.2
545.2961,23
545.3407,45199.9
546.2564,281.1
546.3529,159693.5
546.4891,39.5
546.5197,321.9
546.5515,249.9
546.9219,231.5
547.2604,321.2
547.3564,41797.2
547.4926,20.3
547.525,283.4
547.8448,434.5
548.0052,151.3
548.0421,240.3
548.2141,497.2
548.3591,2624.8
548.3727,728.3
548.3955,212.3
548.6067,641.4
548.6286,437.1
548.8953,472.8
549.0002,814.8
549.2624,452.1
549.4189,304.3
549.7684,487.8
550.3089,866.6
550.3295,18.9
550.3813,551.3
550.4908,488.2
550.7514,19.9
550.7849,175.9
550.8729,2981.7
551.1956,28.7
551.3266,705.1
551.4985,313.8
552.1639,361.4
552.3187,327.3
552.4597,294.2
552.6981,244.3
552.7779,231.5
552.7942,314
552.8697,2334.6
553.1084,219.8
553.2657,20.2
553.2827,168.6
553.5989,20.6
553.8704,335.1
554.0797,409.5
554.3273,146
554.3684,24.7
554.4975,688.8
554.7586,200.1
554.9009,180.6
555.2242,437
555.5041,325.7
556.2723,486.7
556.3278,606.6
556.4215,21
556.608,261.8
556.7304,377.8
556.8531,132
556.8873,418.1
556.9871,506.6
557.285,746.7
557.3281,225.9
557.5806,760.2
557.6337,214.8
557.6981,42.5
557.831,362.6
558.141,212
558.2362,396.2
558.2955,63046.9
558.5498,386.7
559.0128,334.5
559.0833,218
559.1437,298.1
559.2558,630.7
559.2989,13829.5
559.3222,183
559.4726,516.8
559.6856,17.8
560.124,302.9
560.1968,638
560.2907,701.5
560.3112,63112.9
560.3693,456.3
560.722,183.1
561.2686,297.4
561.2895,563.8
561.3147,12551.4
561.6365,300.3
561.9343,706.5
562.0257,188.3
562.0734,363.7
562.3101,1567.8
562.3268,45738.5
562.4898,21.9
562.7204,151.8
562.9295,694.6
563.0388,679.2
563.0746,95.4
563.2525,166.7
563.3006,254
563.3301,9354.3
563.4675,617.3
563.8377,406.9
564.0198,629.6
564.0831,21.6
564.3064,2924
564.322,1041.9
564.3347,428.7
564.5122,353.2
564.5198,371.7
564.7425,400.1
564.7583,139
564.7726,173.5
564.8471,814.4
565.0178,177.8
566.158,500.6
566.3217,35589.2
566.4723,263.9
566.8981,19.5
567.3249,9641.8
567.3804,291
567.4678,255.8
567.6319,38.3
567.7268,169
567.8604,20.4
568.3379,13012.8
569.2204,245.8
569.3408,530.6
569.3727,176
569.401,21.6
569.4339,306.8
569.5236,442.9
569.5753,425.9
569.8647,243
569.904,173.6
569.9425,681.8
570.2511,22.1
570.3541,555.4
570.4181,177.2
570.8295,609.5
570.8666,4024
571.5696,789.1
571.8403,305
572.0497,773.3
572.1437,19.7
572.3685,492.8
572.5354,17.6
572.7849,776.3
572.8638,3653.3
573.0465,240.3
573.2437,40.2
573.364,188.7
573.5073,513.4
573.7732,22
573.8523,49.4
573.9984,231.6
574.1122,254.4
574.2833,2753.9
574.6641,718.5
574.8599,608.1
574.9303,476.2
575.1934,297.3
575.5037,6180.9
575.5856,744.8
575.6725,20.4
576.0794,272.4
576.0962,172.8
576.2386,231.2
576.2806,5494
576.505,2080.4
576.8833,8139.3
576.9703,217.5
576.9876,693.1
577.1259,25.2
577.3987,232.1
577.5193,435.3
577.8867,156.2
578.0212,525.6
578.0846,21.2
578.2771,532.9
578.3202,398.2
578.4439,423.9
578.5378,209.9
578.8286,811
578.8805,8035.2
578.9621,359.8
579.6446,298.1
579.6727,172.4
579.8561,285.2
580.2783,331.2
580.4478,528.1
580.8563,217.1
580.8781,1895.1
580.895,1438.1
580.9746,800.2
581.0505,1103.3
581.1634,17.8
581.3253,404.1
581.8194,163.6
582.1554,27.8
582.2414,172.4
582.2693,491.3
582.2773,667.6
582.296,12748.4
582.3329,298.3
582.3674,1085.8
582.3849,140
582.585,205.8
582.6264,172.8
582.8709,538.2
582.8919,449.3
583.0121,365
583.2567,712.7
583.2989,1064
583.4114,798.6
583.6603,17.8
583.7297,353.8
583.9706,729.4
583.9889,164.7
584.0046,148.4
584.0637,300.3
584.1593,268.2
584.3112,1417.9
584.5132,434.6
584.7588,326.5
585.2593,252.2
585.3299,516.4
585.828,249.7
585.8923,615.3
586.263,258.5
586.2947,860.9
586.3091,5653.6
586.5104,536.7
586.6726,333.8
586.7123,810
586.8167,516.6
586.8213,514.6
586.8406,2606.1
586.9118,939.7
587.0466,166.7
587.0949,21.6
587.3424,242.6
587.393,307.6
587.4678,148.4
587.6326,526.2
587.8782,26.9
588.4547,401.7
588.6179,396.2
588.8376,2570.3
588.909,741.4
588.9194,398.8
589.0463,418.1
589.2241,492.2
589.4545,415.1
589.846,228
589.8729,432.5
589.8892,520.2
589.9661,18.3
590.1954,520.6
590.3215,4960.6
590.3793,191.3
590.4762,156.4
590.6951,19.2
590.7135,20.4
590.7705,862
590.8268,295.3
590.9247,984.9
591.18,22.7
591.2558,401.7
591.2694,21.4
591.326,980.4
591.6931,392.5
592.1505,394
592.355,168.8
592.4217,141.6
592.7951,350.3
592.808,173
592.8579,6981.7
592.9826,308.4
593.0712,161.7
593.1364,226
593.2945,22.8
593.6165,247.1
594.7243,291.6
594.8547,6336.7
594.9543,22.9
594.9686,19.8
595.2123,850.8
595.907,22.2
596.094,493.1
596.099,573.5
596.118,178.2
596.2502,43.9
596.5138,422.9
596.6268,19.4
596.6674,19.5
596.6926,910.9
596.7489,213
596.7543,391.4
596.7595,418.8
596.8521,2152.2
596.8688,1424.4
596.9951,18.4
597.2718,443.6
597.4331,434.3
597.4533,2162.8
597.4849,7044.2
597.5382,494.5
597.7447,763.1
597.8175,19.4
597.8616,160.4
598.0516,297.1
598.3376,192.8
598.421,21.2
598.4536,1126
598.4711,533.3
598.4883,267.3
598.6834,469.5
598.9422,484.8
599.0014,176.9
599.0875,530.5
599.4593,682
599.4784,308
599.5017,2815.5
599.889,189.1
600.2244,399.9
600.4606,737
600.4809,406
600.5591,563.6
600.9459,509.5
601.0036,240.5
601.2739,20
601.413,191.5
601.5187,824.2
601.6301,492.7
602.2345,133.9
602.2948,763
602.886,571.2
602.9663,20.6
603.0342,179.8
603.076,228.6
603.1257,19.5
603.3308,38.6
603.5349,1225.7
603.9692,19.6
604.3124,736.2
604.6071,580.6
604.6425,204.9
604.725,23
604.812,881
604.8828,365.6
605.145,459.5
605.2968,242.2
605.3147,401.8
605.5486,141.2
605.5559,162.4
605.8507,202
606.1615,331.4
606.292,491.5
606.3569,476
606.3759,487
606.7531,221.4
606.9336,395.2
607.3039,460.6
607.5851,305.1
607.6833,18.6
607.8309,528.5
607.8361,633.4
607.9879,41.2
608.0676,412.6
608.091,261.5
608.2721,211.6
608.3915,406.1
608.4599,422.7
608.5569,713.7
608.8312,1005.9
609.029,403
609.0754,241.6
609.3281,21.3
609.7884,40.1
610.0513,221.3
610.1626,155.4
610.3076,699.9
610.828,2328.4
610.9317,491.1
610.9918,333.3
611.0371,255.3
611.2254,283.7
611.2484,506.8
611.2603,393.9
612.1539,19.2
612.1836,20.4
612.4571,19.1
612.6312,212.9
612.7473,24.6
612.7799,131.4
613.1967,20
613.2475,259.8
613.3281,735.2
613.4568,19.9
614.0265,554.9
614.1622,291.5
614.4411,161.2
614.5377,276.3
614.58,374.8
614.5882,372.2
614.7249,21.4
615.4093,610.5
615.6032,20.2
615.8318,20.3
615.908,19.7
615.9558,277.9
615.9952,232
616.4838,20.1
616.675,202.7
616.6914,370
616.9725,329.9
617.0108,356.7
617.2675,220.8
617.475,1001.9
617.6559,256.2
617.9353,247.1
618.4863,241.6
618.7281,275.2
619.1606,23.5
619.2828,151.9
619.468,814.7
619.4884,768.8
619.5537,21.8
619.6238,420.9
619.8359,312.6
620.2053,546.9
620.3759,461.2
620.4953,195.2
620.6171,717.2
620.6972,384.5
620.854,19.5
621.0532,300.3
621.4251,496.3
621.4441,1542.3
621.4608,955.8
621.4851,6414.7
621.4986,172.2
621.8147,239.5
622.1803,413.7
622.2013,641.5
622.4552,507.8
622.4895,697.3
622.9496,805.3
623.1359,3514.8
623.3355,21.7
623.375,608.7
623.4614,833.5
623.4727,657.4
623.5027,1568.1
623.521,175.3
623.8071,20.5
624.1802,524.4
624.3618,419.2
624.5072,243.6
624.8723,27.1
624.9566,356.6
625.1291,377
625.483,1176.2
625.518,235.5
625.6621,197.5
625.7375,531.3
625.8826,549.4
625.9427,808.3
625.9957,373.9
626.0199,454
626.0742,398.8
626.193,454.5
626.3376,247.2
626.6328,239
626.8656,338.8
626.8913,19.2
627.0819,755.4
627.5371,1463.7
627.5861,202.4
627.8354,424.3
628.1744,226.3
628.2604,515.5
628.2916,453.6
628.321,761.8
628.3741,836.6
628.535,244.3
628.9452,237.6
629.1525,9267.3
629.3405,806.2
629.4013,491.3
629.5521,21.1
630.1565,1128.2
630.4706,209.5
630.5587,365.6
630.6232,798.8
630.8808,379.2
630.9183,285.3
631.4784,19.5
631.7478,505.8
631.8016,23.3
631.8458,365.2
631.8845,942.8
632.0567,188.5
632.209,21.4
632.4884,604.9
632.533,305.3
633.0649,21
633.4542,193.5
633.487,168.5
633.8757,670.2
633.935,285.4
634.2907,607.5
634.8426,1428.9
635.0108,673.3
635.3068,323
635.852,584.1
636.3202,41.6
636.7977,516
636.8393,2574.6
636.9527,28.2
637.4251,442
637.4653,377.7
637.7558,50.5
638.0729,19.9
638.0947,530.4
638.1726,501.6
638.2164,162.2
638.2617,209.8
638.3106,20.2
638.3498,213.6
638.4506,1613.1
638.8365,885.9
638.8689,409.4
638.9573,95.2
639.113,288.7
639.1696,533
639.2737,20.7
639.3614,222.2
639.449,498.2
639.558,304.3
639.5885,425.2
639.9524,328.1
639.9778,166.9
640.0904,145.4
640.1155,757.5
640.5186,241.4
640.5666,179.2
641.219,18.5
641.3763,318.9
641.5267,306.2
641.5625,19.3
641.6858,22.4
641.6994,743
642.2527,427
642.6207,19.8
642.8141,240.3
643.684,551.8
643.6974,427.6
644.1146,173.2
644.1496,156.8
645.1177,3995.1
645.1495,249.2
645.215,475.9
645.3202,368.6
645.4408,260.9
645.4518,844.6
645.4819,181.5
646.8351,183.9
646.8662,788.2
646.9796,234.3
647.0655,480.6
647.1403,207.5
647.5696,418.5
647.8966,155.9
648.4319,315.8
648.4765,359.3
648.7619,766.2
648.8359,626.3
648.9421,19.9
648.9487,19.9
649.0337,412.5
649.4589,269.9
649.482,634.5
649.4964,217.7
649.516,212.2
649.6505,57.3
649.8819,183.8
650.037,807.2
650.278,18.2
650.3154,434
650.4391,424.5
650.8164,1384.7
651.1345,19255.3
651.4532,436.7
651.505,277.6
652.1374,1996.5
652.1652,321.6
652.1874,270.2
652.5744,447.1
652.7716,20.5
652.8127,2171.8
652.8644,214.8
653.588,540.3
653.6176,670.9
653.9068,204.8
654.0142,223.9
654.3589,21
654.5791,264.2
654.7141,276.1
654.7383,1053.3
654.7937,216.2
654.8072,494.2
655.0861,754.5
656.2243,271.3
656.5136,41.6
656.9164,622.3
657.182,170.2
657.2082,928.9
657.2386,701.1
657.438,611.8
658.2135,343.1
658.5407,173.5
658.7807,692.4
658.8995,206.6
658.9906,21.7
659.0181,227.5
659.1744,322.3
659.6662,449.3
659.8899,20.6
659.9419,371
659.9673,339.9
660.072,237
660.1428,452
660.3776,491.5
660.8422,410.1
660.9188,487.5
661.0822,2834.8
661.6178,40.6
661.7033,137.3
662.2812,750.7
662.3151,352.9
662.4113,646.8
662.8338,219
663.1274,754.3
663.2536,340.8
663.4216,578.6
663.4546,601.8
663.6264,143.6
663.7103,20.4
663.8001,333.9
664.2124,804.1
664.2287,475.8
664.4668,4113
664.5724,785.4
664.5924,357.5
665.0352,632.8
665.0743,566
665.1012,241.7
665.5309,220.5
666.4833,3952.8
666.6947,292
666.7571,240.5
666.7898,390
666.9659,248.2
667.0992,13761.3
667.2826,939.4
667.3015,683.9
667.3494,128.7
667.3683,20.8
667.4899,561.4
667.6049,187.7
667.6793,162.6
667.8858,438.5
668.1026,529.5
668.7871,509.7
668.8732,449.5
668.9773,437.9
669.1997,708.5
669.4057,126.7
669.4904,293.1
669.5894,485.2
669.6741,194.5
669.9495,212.8
669.9713,309.5
670.0936,571.1
670.5449,49.3
671.3229,255.4
671.3865,201.2
671.4026,200.1
671.61,21.3
671.8661,242.7
672.1537,555.1
672.1853,194.8
672.2829,207.3
672.3656,581.5
672.4249,1028.9
672.5862,18.9
672.8897,21.1
673.0068,130.9
673.1164,34505.4
673.2571,951.1
673.4137,395.7
673.5284,1000.9
673.5783,457.6
673.9434,743.2
674.12,4791.9
674.4673,735
674.5394,346.5
674.8644,388.9
674.9988,808.2
675.0693,314.2
675.4614,19.1
675.4764,526.6
675.5437,22792
675.9396,434.4
675.9688,1129.9
676.0466,2007.9
676.1713,20.4
676.5475,6310.8
676.924,324
677.1609,189.8
677.6643,130.4
677.8606,674.9
677.9668,23.1
678.1078,376.7
678.5517,798.2
678.8355,458.5
678.8426,478.8
678.8816,270.9
679.038,147.1
679.4127,294.5
679.6334,397.6
679.6913,696.9
680.5317,332.2
680.7135,755
680.7314,303.7
680.9633,187.1
681.0479,562
681.0696,596.7
681.1919,346.4
681.728,652.8
681.9855,289.4
682.064,6834.4
682.2573,236.3
682.3107,321.6
682.3498,243.8
682.4431,620.1
683.0006,320.3
683.0634,3271.7
683.433,371.1
683.4496,267.2
683.864,512.7
683.9733,248.5
684.1547,332.9
684.2064,24.3
684.3444,178.6
684.5485,530
684.8263,407.5
684.8659,366.2
685.0762,225.6
685.2483,260.3
685.371,227.2
685.4359,2911.6
685.6549,348.9
685.684,258.9
685.9775,487.6
686.0585,205.3
686.2319,211.2
686.3983,253.8
686.4397,493.1
686.5708,361.8
686.6545,911.7
686.878,198.6
686.9991,637.4
687.0916,210.3
687.3078,691.4
687.383,261
687.6848,20.9
687.9911,219
688.1806,320.8
688.2739,557.2
689.0806,12253.3
689.1603,545.5
689.2225,1576.3
689.3528,41.9
689.4778,367.2
689.5596,7501.4
689.7408,171
689.8007,752.7
689.8315,20.3
690.0846,373.6
690.3654,415.3
690.417,266.8
690.8005,258
690.9656,414.5
691.9354,524.2
692.1795,226
692.251,185.3
692.4888,269.4
693.3011,794.6
693.4093,704.7
693.8877,571
693.9777,379.9
694.3353,19.4
694.4968,677.5
694.664,23.1
694.7979,414.2
694.8384,19
695.0983,27767.1
695.2195,322.4
695.5094,2419.1
695.5517,19.7
696.1024,3447.2
696.3096,20.6
696.5117,1000.5
697.1028,209
697.1648,20.1
697.5257,24913.1
697.5927,24.7
697.6875,241.9
698.0289,1757.4
698.2151,566.8
698.5294,4202.7
698.7625,435.6
698.9583,615.9
699.0333,197.2
699.2056,214.7
699.53,1242.2
699.5809,345.1
699.8654,49.6
699.9635,806.8
700.0385,163.7
700.2954,199.9
700.3244,19.4
700.6304,256.3
700.662,391.8
700.7275,191.1
700.8567,311.3
701.0397,228.8
701.1088,166.3
701.2246,729.7
701.2461,40.6
701.3927,267
701.4088,399.9
701.5595,44395
701.8387,42.9
701.922,529.5
702.0495,238.3
702.2501,302.4
702.3162,17.5
702.3423,3139.5
702.3878,20.1
702.4252,691.4
702.5631,15194.2
702.6489,528.2
702.7347,179.6
703.0596,255.2
703.1745,20.8
703.2812,187.4
703.3267,373.8
703.3465,676.8
703.3934,22.7
703.4921,174.2
703.5751,93412.9
704.0459,7039.1
704.1894,415.5
704.4387,725.5
704.521,636.9
704.5785,33448.1
704.7369,156.1
704.8196,464.8
705.0497,1928
705.5822,2235.9
706.5381,3856.5
706.7596,189.6
706.8532,837.1
707.0038,140.1
707.0523,273.7
707.6,389
708.03,243.4
708.0773,641.5
708.1141,441
708.2295,622.1
708.2691,377.5
708.4859,715.4
708.5349,26.5
708.6548,873.5
708.9625,846.8
709.1698,19
709.2026,296.3
709.3746,569.9
709.573,159.2
709.7453,243.2
710.0046,145.1
710.6182,21.7
710.7532,651.1
710.7737,521
710.9361,395
711.0633,7488.9
711.0734,9467.4
711.1157,76.1
711.5414,3725
711.5665,329.8
712.0767,450.1
712.2925,234
712.4564,168.7
712.5451,1996.5
712.5963,667.9
712.6385,20.4
713.0198,424.6
713.0301,445.8
713.2237,196
713.2414,166.9
713.47,363.2
713.4993,1735.4
713.6017,17.6
713.6333,714.2
713.7754,214.8
713.9089,636.7
713.9966,379
714.0754,558.4
714.2438,393.1
714.3304,583.5
714.421,387.9
714.4558,22.8
714.5023,1067.2
714.7448,401.3
714.7632,190
714.8688,217.9
714.9013,269.2
715.0008,183.1
715.0441,198.1
715.3713,620.8
715.5646,542.5
715.6845,23.5
715.7957,23.5
715.8686,40.6
715.9269,169.7
716.0299,326
716.0832,732.9
716.5688,449.4
716.9699,304.6
717.0805,14326
717.3712,46.3
717.9856,152.8
718.0859,678.6
718.1995,17.3
719.0143,278.1
719.1169,756.3
719.2194,24.2
719.2734,216.4
719.3604,665.7
719.5032,19.4
719.7762,424.8
719.9018,405.4
719.9544,281.1
720.0194,593.1
720.0379,367.2
720.3373,21
720.9809,211.5
721.2029,333.5
721.3456,750.4
721.4779,55685.3
721.562,175.4
721.5836,43.4
721.8428,748.8
722.4816,18229.6
722.6217,382.5
722.7537,41.7
722.8201,388.4
722.9835,214.5
723.0128,639.3
723.0398,42.1
723.4948,8586.1
723.5411,31308
723.8068,197.5
724.0152,231.5
724.2075,528.9
724.4965,662.9
724.5445,9679.4
725.1778,732
725.557,62623.4
725.8271,182.8
726.0282,4462.9
726.0592,143.4
726.1695,765
726.3876,675.6
726.5028,311
726.5605,23665.7
726.647,291.4
726.7937,19.9
726.8793,371.3
727.0292,1502.6
727.0482,371.4
727.1039,158.3
727.1347,18.8
727.2389,18.8
727.5172,179.8
727.8347,19.7
727.9375,174.8
728.1757,574.9
728.1983,244.4
728.5187,1481.1
729.1578,278.6
729.3536,333.7
729.4848,329.2
729.591,11184.4
729.7731,730
729.9907,149.2
730.1393,269.4
730.2326,154.7
730.299,279
730.3478,411
730.5385,9631.3
730.5942,1505.2
730.67,20.4
730.751,340.2
731.5421,2502.1
731.6064,4018.2
732,22.8
732.0203,322.5
732.0751,20.7
732.2902,160
732.5541,48881.4
732.6092,1292.4
732.7219,216.3
732.8377,160.2
732.9307,356.7
733.047,4066.2
733.0554,4690.1
733.3358,251.7
733.5578,15842.7
733.5927,605.6
733.7102,475.8
733.7615,256.5
733.8,843
734.0597,231.5
734.2311,173
734.5698,7292.8
734.8898,352.6
734.9224,207
735.1578,193
735.2773,317
735.5705,439.7
735.5951,208.7
735.9329,836.4
736.0203,20.1
736.0272,20.9
736.055,358.6
736.5636,399.2
736.681,308.1
736.7739,377.5
736.8093,803.2
737.1708,17
737.2266,319.6
737.4518,13136.1
737.6184,431.4
737.7616,458.3
737.7673,514.9
737.8376,245.5
738.0446,424.7
738.1701,572.3
738.2875,252.2
738.384,363.5
738.4531,1062.2
739.0122,230.2
739.063,9962.6
739.1018,332.5
739.1547,854.2
739.1891,191.3
739.2884,411.9
739.3407,38.9
739.4487,156
739.4669,865.2
739.5149,3524.8
739.9502,203
740.053,545
740.5214,1130.9
740.8187,752.8
741.2889,44.1
741.3837,719.2
741.5309,9000.7
741.5567,237.8
741.6284,194.2
742.0044,636.5
742.3242,734.5
742.5355,3430.2
742.5551,553.9
742.5748,8602.4
743.4235,633.7
743.4624,1216.2
743.5771,545.8
743.6573,349.6
744.4564,408.5
744.5543,7640.5
744.5905,10061.7
744.6767,236.8
744.7179,617
745.3767,760.2
745.4781,24618
745.5589,2465.3
745.5939,5126.1
745.6324,20.1
745.907,1034.9
745.9294,19.7
746.0978,565.4
746.214,20
746.3534,388.4
746.4806,8216.3
746.5696,6944.6
746.6075,4814
746.8817,756.9
747.3371,261.4
747.4663,21.8
747.4945,8672.4
747.5729,697.9
747.6079,960.9
747.6395,20.9
748.0105,2516.6
748.1426,273.4
748.4974,1313.4
748.6099,657.5
748.7807,149.7
748.974,307.4
749.011,1364.6
749.3877,341.1
749.5082,5197.9
749.9925,337.9
750.0596,19.1
750.1989,21.2
750.5123,789.8
750.5424,373
750.7609,18.1
750.8,330.4
751.1348,644.3
751.2057,509.4
751.235,22.8
751.5725,5359.3
752.0952,634.1
752.4224,216.9
752.5198,8866.8
752.5757,1208.2
752.6052,39.7
752.7021,20
752.7386,245.3
753.0149,272.4
753.0794,170.7
753.2432,186
753.2743,365.3
753.5243,1110.8
754.3012,291.6
754.5363,30009.8
754.7218,129.2
754.959,522
755.0298,2112.2
755.226,354.8
755.4056,415.1
755.5397,12441.8
755.6902,765.8
756.0194,615.7
756.3166,265.3
756.4337,155.7
756.554,54582.6
756.594,175.3
756.8489,333.9
756.9576,410.2
756.9914,168.3
757.5572,22238.4
757.6233,933.6
758.2531,508
758.4755,259.1
758.5698,1181269.1
758.7613,755.2
758.9249,187.8
758.9458,174.9
759.016,694.8
759.5731,525180
759.6377,2027
760.0001,141.4
760.2789,308
760.5863,420716.2
760.6399,327.4
760.6939,18.1
761.0446,2134.5
761.1345,1930.6
761.3465,637.8
761.4517,5752.5
761.5891,198972.8
761.8727,526
762.4565,908.5
762.5922,43669.6
762.6644,276.3
762.7449,375
762.8097,527.2
763.0869,794.6
763.1919,431.5
763.4673,1173.2
763.5939,4074.2
763.6593,395.6
763.8409,840.9
763.9663,242.3
764.0365,591.7
764.3677,401.9
764.4756,210.1
764.4988,18
764.5552,2190.5
764.689,364.9
764.9916,511.9
765.0406,357.9
765.1285,19
765.6941,333.7
765.8469,471.2
765.8733,521.8
766.5353,4732.5
766.5743,29331.2
766.9239,162.6
767.1725,150.5
767.249,18.3
767.3048,250.2
767.4482,18.7
767.5785,8936.8
767.7169,339.4
768.5528,7495.3
768.5906,36490.4
768.7308,924.3
768.7584,152.1
768.9615,271.1
769.1929,470.4
769.2583,20.1
769.4785,2677.5
769.5017,339
769.5702,1070.7
769.5937,13691.7
769.8917,243.9
770.2546,593.5
770.5103,3189.2
770.5691,1134.7
770.6071,5853.7
770.9925,5977.2
771.1109,327.1
771.1485,146.9
771.4941,1817.1
771.6113,448.5
772.0203,348.9
772.1068,253.7
772.1516,44
772.2052,425.1
772.5855,22673.6
772.6467,425.9
772.9808,214.5
773.1203,1133.8
773.1912,42
773.5107,958.6
773.5886,6972.7
773.6389,571.7
773.8697,201.6
773.9948,669.8
774.2417,545.5
774.4167,317.9
774.4821,623.9
774.6025,1715.9
774.982,292.2
775.0619,26.6
775.5345,20.2
775.6045,394.8
775.6817,41
775.843,68.3
776.0648,342.3
776.3478,931.7
776.4682,174.7
776.5208,812.5
776.6817,630.7
776.7819,391.5
776.8061,317.4
777.008,3551.8
777.5255,770
777.9659,474
778.0187,441.2
778.0454,1196
778.358,195
778.4397,470.3
778.5359,29500.8
778.7125,18.9
778.9892,161.4
779.0977,17.6
779.2164,207.3
779.4107,393.2
779.509,677.5
779.5398,13291.9
779.6076,354.7
780.227,1134.6
780.3881,747.1
780.552,658440.2
780.8312,437.2
781.1585,334.6
781.5554,296233.7
782.1387,488.7
782.5142,545.3
782.5695,719849.8
782.889,455.5
783.0267,3237.6
783.5728,337708.1
783.7598,211.6
783.8666,267
784.2956,645.1
784.3397,399.6
784.4716,574.6
784.5864,338303.8
784.7541,680.4
784.9623,652.2
785.4729,747
785.5892,172244.4
785.6533,7511.6
785.8142,437.6
786.008,399.5
786.1842,213.9
786.2599,435.2
786.2862,395.5
786.6016,363517.3
786.6572,1549.8
786.9752,229.3
787.0891,865.1
787.2816,91.5
787.6046,175238.7
787.6701,891.7
787.7306,306.6
788.4866,571
788.5562,4999.5
788.6052,28157.4
788.6192,14854
788.6951,486.8
789.5579,429
789.6219,7101
789.7005,153.3
790.1663,383.1
790.5377,535
790.574,13312
790.6235,1368.5
790.7781,504.1
790.8924,526
790.9668,176.3
791.2997,542.3
791.5769,4043
791.8898,454.3
791.9458,395
792.401,383.4
792.4679,750.2
792.556,463.3
792.5902,13499
792.9032,1283
792.9823,2234.6
793.09,42.2
793.555,631.8
793.5946,4358.1
793.9087,525.6
794.4718,452.2
794.5089,2419.5
794.5678,7815.5
794.6064,36609.6
795.569,485.7
795.6097,17665.1
795.6724,22
795.7821,177.2
795.8028,277
796.3524,427.4
796.5256,133271.8
796.5853,9891.6
796.6231,3790.8
796.9413,221.1
797.1194,418.3
797.3444,659.7
797.3857,131.9
797.5292,58730.5
797.5879,728
797.6256,1253.7
798.1647,633.8
798.5425,34997.4
798.7832,706.8
799.0012,360.6
799.5448,16529.3
799.667,1716.7
799.7124,17.8
799.8078,576.2
800.5496,638.8
800.6713,965.3
800.832,2526.5
801.1374,683.8
801.1664,18.5
801.272,710.4
801.3514,627.6
801.4056,391.4
801.5448,646.8
801.6315,236.2
801.6865,63.4
801.8834,548.5
802.536,62222.4
802.6102,482.4
803.2785,180.1
803.421,833.4
803.5394,26876.5
803.6742,486
803.7341,541.5
803.8327,318.8
803.9706,223.5
804.4598,203.3
804.5518,290401.3
804.7454,793.8
804.8577,222.4
805.2631,253.6
805.5551,136361.5
805.8502,376.7
806.055,341.1
806.2912,191.2
806.3948,702
806.4392,18.4
806.4725,396.3
806.5692,321619.7
807.5722,168845
807.6498,211.1
807.7078,536.8
808.5213,616.5
808.585,252371.6
809.0004,378.8
809.3126,182.2
809.3966,20.2
809.46,943.1
809.5881,125271
809.782,21.4
810.5404,792.6
810.6017,169820.3
810.6681,206.8
810.9845,78.2
811.103,327.8
811.5415,227.1
811.6048,90422.8
811.669,12703.7
811.8992,556.3
812.0711,361
812.3383,725.7
812.6053,5847.8
812.6191,26974.4
812.6725,3711.2
812.8392,795.1
813.065,439.3
813.4381,192.4
813.6212,12568.7
813.686,4016.8
813.7488,402.8
813.9057,218.2
814.5728,1673
814.6206,1679
814.6885,2256.8
814.8532,790.3
815.3319,100.2
815.402,503.2
815.4283,300.2
816.0157,660.1
816.0545,400.5
816.1291,160.6
816.2929,19.1
816.4111,901.9
816.4403,588.1
816.5888,8014.8
816.7062,322.5
816.8847,546.4
816.9053,24.3
817.0684,488
817.5918,2044.9
817.6709,291.6
817.7824,150.3
817.9294,557.8
818.51,10697.7
818.6053,1793.8
818.641,467.3
818.9813,128.1
819.3294,482.6
819.367,538.4
819.5146,597.9
819.6063,297.5
820.0309,168
820.1273,19.7
820.5257,69610.3
820.5825,465
820.6232,301.5
820.7418,119.5
820.9442,18.4
821.0769,319.1
821.3797,335.4
821.5289,29633.3
821.6277,1071.5
821.7401,19.7
822.4385,671.5
822.5421,34784.6
822.6032,166.4
822.6404,782.1
823.2212,245.1
823.2828,747.5
823.5075,1810.8
823.5445,11369.5
823.7172,377.7
823.767,244.2
823.8803,1007.9
823.913,588.4
824.0552,327.7
824.5578,27016.9
825.2432,391.3
825.5606,9517.4
825.8391,194.3
825.9793,222.8
826.0169,201.7
826.2045,363.6
826.3933,172.9
826.5291,185.2
827.3557,212.1
827.5627,253.4
827.6477,347.5
827.7067,529.4
827.7904,22.4
827.8159,313.3
827.8494,166.9
828.5079,436.3
828.5517,92914.3
828.782,476.1
829.0278,624.5
829.1538,671.3
829.2986,544.7
829.3402,397.2
829.555,44941.1
829.6291,685.3
829.7466,220.9
829.8098,812.7
829.8552,26.7
830.1085,316.3
830.4413,760.5
830.5683,61601.3
831.192,778
831.2375,19.1
831.3332,596
831.5714,30905.1
831.7487,19.5
832.0758,182.9
832.2706,194
832.4415,19.3
832.5841,65962.7
832.6272,185.8
832.6728,445
832.8785,180.8
832.9316,130.9
833.0544,751.8
833.1189,277.1
833.1862,776.5
833.5866,34731.9
833.6501,1512.7
834.1772,806.3
834.2818,787.2
834.363,939.9
834.5054,340.1
834.6012,30794.6
834.8801,23.3
834.9669,22.3
835.1064,727.8
835.289,176
835.3362,251
835.4221,443.8
835.6044,12638
835.6793,625.1
835.7489,546.4
835.7731,332.4
836.182,684.4
836.6183,3598.7
837.0607,742.9
837.2051,65.9
837.3857,734.5
837.5789,410.6
837.6209,1775.3
837.7694,670.7
838.0016,788.8
838.4488,573
838.5033,299.9
839.0213,308.3
839.3219,707.9
839.389,508.5
839.4836,796.2
839.6836,23
839.9281,223.1
840.0233,554.4
840.1265,231.4
840.1884,19.9
840.2383,1694.2
840.5218,861.2
840.717,1190.9
840.9255,1202.2
840.9457,393.8
840.9735,914.5
841.0177,1076.1
841.6387,358.5
841.7333,419.3
841.7517,468.7
841.9459,484.2
841.9775,803.8
842.2427,20.1
842.3431,25.4
842.5442,1417.1
842.6077,641.7
842.7962,19.5
843.0454,345.2
843.5779,330.2
843.836,192.7
843.9557,22.5
844.1908,300.2
844.2835,558.9
844.5262,18584.3
844.8482,21.1
845.0427,280.9
845.0664,185.5
845.1646,391
845.2883,187.7
845.4004,639.4
845.4368,666.2
845.4726,546
845.5285,4109.8
845.6234,623.2
845.7579,207.2
845.9721,693.1
846.3046,20.3
846.5426,8749.3
846.658,345.2
846.7193,17.5
846.7877,689
846.9594,745.5
847.5239,1285.4
847.5445,2004.5
848.2399,20.4
848.3122,64.1
848.5566,7384
848.8021,251.6
848.8126,293.7
848.8468,576.2
849.0031,18.2
849.561,1729.9
849.8445,650.6
850.7417,366.7
851.3346,555.4
851.494,231.7
851.5763,744
851.6446,242.1
852.3013,170.1
852.5739,475.7
852.7296,273.5
852.8284,42.8
852.8615,733.9
853.0485,364.2
853.0743,539.1
853.5967,736.9
853.7766,190.6
853.8336,581.7
854.0805,302.4
854.4108,248.7
854.4626,627.1
854.5664,1607.3
854.6778,925
854.8829,376.7
854.9935,1143.4
855.4586,937.7
855.6726,401.1
855.724,335.5
856.058,391.2
856.2009,686.2
856.2947,226
856.5043,195.4
856.5832,2326.6
856.7052,490.5
856.8438,1279
857.0111,352.8
857.2476,366.9
857.983,316.7
858.3477,174.4
858.394,159.5
858.4577,44.5
858.4935,361.6
858.5778,191.3
858.5994,999.8
858.6464,737.8
858.6721,751
858.893,396.4
859.1069,629.6
859.1702,858.5
859.2918,801.5
859.5582,304.2
859.7127,570.4
859.7464,18.7
860.108,556.2
860.4029,322.8
860.5028,43.7
860.554,188.8
860.9712,552.3
860.9976,440.2
861.5373,855.9
862.1753,18.9
862.4505,839.3
862.6059,194.7
862.7255,950.1
862.8195,18.4
862.8836,416.4
862.9135,604.4
863.0208,232.4
863.3201,261.2
863.3649,674.7
863.8021,374.7
864.1772,801.1
864.2725,515.9
864.5395,422.9
864.6199,70
865.1007,139.7
865.3628,575.1
865.3762,687.4
865.5585,293.3
865.6041,482.4
865.6273,582.1
866.0281,1482
866.6708,349.6
867.0076,366.4
867.3078,1941.5
867.5197,737.4
867.707,176.1
867.9561,272
868.2818,21.4
868.6249,368.8
868.9376,1529.2
869.0439,216.9
869.3011,596.4
869.3502,959.3
869.3875,40.1
869.4329,290
869.4894,386.4
869.5344,788.9
869.5879,991.9
869.6586,1211.8
869.7003,1701.7
869.7189,1358.4
869.7361,1470.6
869.7906,3717.5
869.8503,5151.1
869.8838,3634.7
869.9294,1389.4
869.9501,1420.6
869.9907,1666.8
870.0044,1757.3
870.047,225.9
870.0807,20.9
870.1052,389.6
870.1332,451
870.5051,561.6
870.5444,543.1
870.5964,422
870.678,754.9
870.7768,48.2
870.9542,51.8
870.9963,2151.3
871.7555,40.7
871.7843,134.6
872.1607,19
872.2566,142.1
872.3344,753.8
872.5324,268
872.5594,483.7
872.7776,402.4
872.793,523.6
872.8773,302
873.0973,166.9
873.1259,1133.2
873.5057,368.4
873.5858,202.8
873.8636,19.5
874.4901,971.8
874.5626,858.5
874.5999,90.8
875.1238,288.7
875.4992,21.8
875.5308,192.4
875.8596,20.6
875.8879,321.5
875.9896,1581.8
876.2767,409.9
876.333,450.8
876.4917,256.5
876.6008,377.8
876.9297,255
877.4702,231.7
877.8698,233.8
877.9639,778.3
877.9983,852.9
878.3552,1351.8
879.0594,989.2
879.1491,21.8
879.5064,565.9
879.6866,234.5
879.778,277.4
880.4908,967.3
880.7741,18.8
881.0033,208.2
881.0732,706.2
881.3623,643.4
881.4235,1692.9
881.5911,441.5
881.7757,574.6
882.0115,819
882.1672,603.1
882.1909,592.6
882.4934,298.3
882.9956,183.1
883.1913,225
883.2101,213.8
883.3737,370.8
883.4007,422.4
883.4377,642.7
883.7797,382.1
883.8316,468.9
883.9427,1015.3
884.159,671.6
884.5001,311.5
885.0743,22.9
885.5555,901.3
886.0172,574.5
886.3181,446.6
886.4166,1285.5
886.7263,645.1
886.8345,206.2
886.8848,415
886.9298,942.8
888.0835,183.3
888.5368,553.3
889.0426,355.8
889.1645,822.4
889.2727,19.2
889.3375,67.8
889.4549,244.1
890.1588,154.9
890.3066,252.9
890.3441,223.5
890.5017,310.5
890.7491,268.7
890.9147,462.7
891.0599,20.9
891.2495,1060.5
891.4001,563
891.4447,730.2
891.5108,411.4
891.5595,230.2
891.8314,520.6
892.5066,283.3
892.7373,171.2
892.9548,554.7
893.132,40
893.3474,285.2
893.4335,443.2
893.4434,333.7
893.5447,1174.9
893.799,509.2
894.0784,320.9
894.2447,395.9
894.4987,545.5
894.6424,689.3
895.1728,1305
895.3287,169
895.4879,156.8
895.5743,556
895.8026,474.7
896.0277,993.8
896.0527,964.1
896.4557,937.3
896.4838,614.4
896.5537,387.9
898.1358,469.1
898.1865,279
898.2167,614.2
898.2564,756.7
898.4481,194.4
898.5073,687.5
898.6755,575.4
899.1137,373.1
899.2708,1440.1
899.4448,893.5
899.5227,760.4
899.6163,673
900.5181,152
900.559,1081.8
900.7968,176.2
901.0138,19
901.2755,648.2
901.381,802.8
901.5221,156.1
901.5479,273.9
901.8296,416.7
902.2006,847.1
902.3906,326.2
902.4065,331.9
902.5815,43.2
902.6609,947.3
902.9488,610.1
903.7212,627.1
904.4579,444.8
904.6787,737.4
905.1097,340.2
905.3309,745.8
905.5169,811.1
905.5548,188.8
905.7328,360.8
906.1539,607.6
906.5026,19.7
906.825,141
906.9682,117.8
907.0092,481.1
907.3989,862.4
907.7096,269.3
908.1731,183.3
908.2131,891.8
908.3327,651.3
908.3795,619.8
909.6004,727.4
909.7556,2434.1
909.8255,748.6
910.0864,664.3
910.1155,1313.9
910.4631,19.2
910.6723,22.2
910.7507,722.7
910.8398,2267.8
911.1782,881.9
911.2482,22
911.7797,504.5
913.4223,215.6
913.8537,174
914.5181,382.8
914.5438,21.4
914.5994,78.2
914.7489,210
915.0242,680.4
915.0636,440.7
915.3092,102.1
915.3709,767.8
915.5643,873.1
915.7817,238.7
915.8594,258.7
916.1183,753.3
916.7368,19.9
916.8898,39.6
917.1236,617.7
917.7589,1162.7
917.9062,40.5
917.9903,611
918.4655,560.6
918.6907,196
918.9701,755.5
919.181,242.7
919.8849,19.5
920.2377,604.1
920.5984,702.1
921.0092,290.5
921.0547,1051.4
921.0947,205
921.5867,885.4
921.7357,47
921.9833,752
922.3546,446.3
922.8705,196
922.9281,664.4
923.5746,283.4
924.0406,211.2
924.6801,19.2
924.7653,534.1
924.8084,234.9
925.0084,529.9
925.3128,275
925.4315,589
925.6223,569.7
925.7813,633.4
926.0001,198
926.7117,1829.1
926.8638,967.6
927.1662,18.6
927.4979,391.7
927.8217,608.7
928.0728,257.8
928.7732,211.2
929.1792,231.4
929.2738,727.7
929.4197,190.5
929.5569,705.5
929.5854,659.6
929.8333,1293.7
930.3726,1620.9
930.4406,246.4
930.5887,425
930.6361,177.7
930.6692,795.9
931.2514,499.1
931.7155,1007.2
932.5343,238.3
932.7218,1248.6
933.2172,724
933.4518,372.2
933.4926,444.6
933.5255,137
933.6066,1550
933.7158,388.4
934.0636,933.4
934.5906,1839.5
934.6272,19
934.9639,543.9
934.9923,541.3
935.1376,284.4
935.5323,763.5
935.9382,127.2
936.3929,314.2
936.5352,433.5
937.2967,588.5
937.4353,385.1
937.8055,282.8
937.854,1670.5
938.0069,22.9
938.0821,349.6
938.1766,528.5
938.4241,618.9
938.4809,20.1
938.9467,446.7
939.1036,46.2
939.8305,212.5
939.9481,720.2
940.5914,184.4
940.9863,220.3
941.4435,175.2
941.5756,211.2
941.9776,189.6
942.1403,1009
942.2826,504.4
942.5263,945.7
942.6065,250.1
942.6826,325
942.9881,229.8
943.0453,167
943.2153,19.9
943.4511,360.9
943.6192,163.7
943.6642,855.6
943.8201,17.4
944.662,258.7
944.9347,250.7
945.3078,596.9
945.56,186.7
945.6564,48.4
945.7016,19.4
946.1334,23.4
946.4202,20.9
946.6362,476.7
947.1184,147.3
947.792,1173.7
947.9202,234.5
948.0822,1421.6
948.2163,629.8
948.2281,611.9
948.2396,465.1
948.3701,903.9
948.5108,589.6
948.6528,545.4
948.7584,556.5
948.8725,321.5
948.9155,167.9
948.998,422.7
950.0011,19.3
950.15,594
950.1868,22.4
950.2231,1287.4
950.2945,412.1
950.3097,445.1
950.4578,391.7
950.5113,1178.9
950.6079,637.7
950.9429,571.6
951.2367,237
952.0229,20.7
952.1365,236
952.2233,443.5
952.3807,986.8
952.4682,187.6
952.5949,1235
952.6272,385.4
952.7649,887.8
952.9268,1222.8
953.0239,1485.4
953.1437,509.2
953.3025,508.6
953.3412,468.7
953.4938,1268.2
953.5462,22.6
954.0107,1033.5
954.1673,729.6
954.2858,19.9
954.4104,636.2
954.935,181.9
954.9808,346.4
955.0566,489.6
955.5432,51.6
955.6148,926.4
956.0804,265.8
956.4401,179.1
956.6415,175.4
956.687,19.3
956.7149,153
956.7482,174.4
957.326,356.4
957.3628,198.1
958.5772,427.5
958.925,19.4
959.4924,700
959.6224,225
959.6635,354.6
959.7447,407.6
959.9843,144.1
960.411,40.2
960.8631,645.8
961.4183,1495.9
961.6732,486.2
961.7206,120.7
961.7867,343.6
962.4221,830.5
962.473,623.9
962.7747,901.3
962.8999,477.5
962.9424,753.1
963.8525,839.1
964.0628,244.6
964.5517,369.7
964.7279,19.2
964.9653,151.6
965.1291,213.8
965.2104,312.2
965.3587,466.9
965.4146,1119.9
965.4331,1148.9
965.7116,837.5
965.997,1061.9
966.0735,620.6
966.1417,186.3
966.3348,18.3
966.3758,154.6
966.922,1162.1
967.2548,843.2
967.3547,483.8
967.7447,735.9
967.9063,1367
967.9849,272.6
968.0525,19.4
968.1038,501.2
968.2899,494.6
968.512,173.5
968.5601,20.3
968.7479,834.6
968.7696,747
969.0189,293.7
969.0907,1523.2
969.2725,940.8
969.2984,897
969.3787,20.3
969.4927,550
969.8105,264.2
970.0163,39.7
970.5678,192
971.1025,423.3
971.1978,719.3
971.9193,1404.1
972.9026,512.7
972.91,489.5
973.0826,783.4
973.3372,457.9
973.8051,184.8
974.4755,179.6
974.5968,753.9
974.6438,411.8
974.7277,409.3
974.8464,356.3
974.9452,145.6
975.5107,1362.7
975.6938,346.5
976.1285,188.7
976.472,424
977.042,134.2
977.0903,54
977.9411,684.6
978.201,229.9
978.4923,563.5
978.5764,383.2
978.7237,906.6
978.7494,414.3
979.3277,256.5
979.4979,20.1
979.6217,489.4
979.8608,197.5
979.9033,361.5
979.9681,212.1
980.0445,621.5
980.2587,902.9
980.5885,171.9
980.7535,333.7
980.8024,1020.4
980.9139,283.2
981.0042,371
981.128,218.7
981.1702,22.7
981.2501,127.9
982.0431,433.5
982.2151,1165.9
982.4567,171
982.6078,437.6
983.7159,211.2
983.7518,732
984.053,1632.7
984.6616,1000.4
985.1368,1072.5
985.2352,622.1
985.4121,405.4
985.458,20.1
985.5529,303.1
985.9606,383.4
986.0363,878.2
986.4937,41.3
986.5281,170.2
986.6031,396.2
986.8487,657.8
987.1151,686.7
987.2549,422.9
987.6882,649.8
987.7711,366.8
987.8936,794.4
987.9422,416
988.2926,887
988.3395,548
988.6905,209.1
988.9212,542.7
989.1254,19
989.3676,20
989.8414,424.5
989.9701,1513.3
990.3121,178.9
990.4947,855.8
990.5564,21.1
990.9337,537.1
991.0594,1328.8
991.1094,19
991.1917,345.2
991.3023,536.9
991.4861,764.9
991.7842,1160.7
992.022,938.5
992.2773,193.7
992.507,573.4
992.5851,511.4
992.8682,1173.2
993.3267,1285.8
993.6015,21.1
993.9458,2336.7
994.1363,209.5
994.2923,524.1
995.0132,403.4
995.4663,725.4
995.9556,1407.1
996.5618,645.4
996.7819,394.3
996.9644,726.3
997.1383,589.4
997.2733,235.2
997.6112,105.3
998.0876,636.9
998.1517,198.6
998.2758,1087.9
998.4718,224.5
998.9104,342.9
999.201,1150.7
999.287,633.9
999.3791,386.1
